DATE 2017:116:12:24:55 obsn   0 az  29 el 51 freq_MHz  1423.0000 Tsys 165.000 Tant 298.778 vlsr  -12.21 glat -2.085 glon 111.575 azoff -8.01 eloff 0.00 source Cass 
Fstart 1421.997 fstop 1424.003 spacing 0.009375 bw    2.400 fbw    2.000 MHz nfreq 256 nsam 5242880 npoint 214 integ     8 sigma    1.233 bsw 3
Spectrum      7 integration periods
 455.934  456.261  454.080  451.478  456.222  453.358  454.372  451.469  453.406  450.113  455.251  455.720  454.214  455.526  452.718  455.367  458.619  456.560  455.425  457.741  459.555  457.561  455.258  458.458  456.497  456.058  456.608  457.007  460.854  457.891  457.805  454.968  457.212  457.489  455.092  456.758  455.530  457.087  453.721  457.872  455.653  458.806  457.573  457.497  457.986  457.475  457.389  459.558  459.342  457.771  455.613  459.749  461.433  459.417  457.138  459.563  465.153  459.561  459.565  460.173  457.121  457.280  459.326  456.483  456.183  457.766  457.336  456.288  458.099  453.875  456.119  459.379  458.452  459.394  457.560  459.247  459.479  459.706  466.671  470.998  462.171  458.400  462.503  458.621  458.960  457.947  459.130  460.244  458.096  455.917  459.647  461.619  461.324  460.247  457.751  460.705  458.618  459.611  461.471  461.334  462.325  461.396  459.601  463.878  459.578  463.546  461.276  462.340  462.436  465.512  462.432  460.534  465.160  464.591  467.084  462.349  461.844  465.562  466.231  463.911  466.399  464.820  466.545  465.090  463.864  465.319  464.937  463.261  467.840  465.076  466.661  466.422  466.316  464.413  464.150  466.344  465.792  468.246  469.309  468.228  466.438  463.647  467.841  468.551  465.155  463.982  466.344  466.108  467.959  464.364  465.787  465.670  466.497  467.608  465.356  466.778  469.434  466.421  465.646  470.006  468.110  467.091  466.436  466.421  466.886  466.784  467.659  470.257  468.244  471.648  471.167  468.460  467.901  466.295  467.449  468.711  470.776  468.015  468.813  472.568  469.533  466.655  470.997  471.741  473.357  467.523  467.614  470.120  469.995  470.948  471.050  471.789  471.516  469.676  467.802  465.991  468.283  469.344  466.444  469.063  469.061  468.732  470.431  468.658  469.382  470.410  472.266  469.445  472.920  469.260  470.439  470.114  473.475  472.008 
DATE 2017:116:12:25:19 obsn   1 az  37 el 51 freq_MHz  1423.0000 Tsys 165.000 Tant 293.571 vlsr  -12.21 glat -2.085 glon 111.575 azoff 0.00 eloff 0.00 source Cass 
Fstart 1421.997 fstop 1424.003 spacing 0.009375 bw    2.400 fbw    2.000 MHz nfreq 256 nsam 5242880 npoint 214 integ    19 sigma    0.791 bsw 4
Spectrum     17 integration periods
   1.887    0.130    3.044    2.079    0.609    1.789    1.581    1.320    0.400    1.049    0.033    0.188    1.725    0.714    1.806   -0.236    0.753   -0.234    1.759   -0.162    0.010    0.685   -0.401   -0.340   -0.734    1.265   -0.427    0.478   -0.308    0.315    1.023    1.699   -0.599   -1.391    0.549    0.103    0.010   -0.153    1.856    1.741    0.882   -1.444   -0.084   -0.772    0.273    0.285    0.917    0.052   -1.196   -0.173   -0.165   -1.571   -1.291   -0.259   -0.221   -0.380   -2.238   -0.194   -0.781   -0.623   -1.364   -0.344   -1.451    0.848   -0.372   -0.775   -0.902   -0.160    0.099    1.010   -0.619   -0.939   -1.020   -0.601   -0.872   -2.234   -0.233   -1.149    0.562   -0.262   -1.610   -1.057   -2.274   -0.971   -0.936   -1.242   -1.502   -1.363   -0.412   -0.374   -1.179   -0.929   -0.925   -2.220   -0.561   -1.925   -2.134   -0.985   -1.672    0.431   -2.854   -2.275   -0.959   -2.219   -0.827   -3.199   -1.265   -1.078   -3.136   -3.232   -1.981   -2.339   -2.946   -2.435   -2.407   -1.555   -2.882   -1.807   -3.597   -3.624   -4.306   -2.656   -3.565   -3.950   -2.392   -3.877   -3.917   -3.346   -2.359   -2.700   -2.766   -1.639   -3.627   -3.183   -2.871   -2.461   -3.647   -4.042   -3.633   -3.842   -4.653   -3.032   -4.384   -3.390   -4.548   -4.677   -4.436   -3.765   -2.885   -2.896   -4.319   -3.798   -4.615   -4.625   -3.950   -3.866   -5.589   -3.242   -4.212   -5.701   -5.358   -4.516   -3.483   -4.787   -4.820   -3.494   -4.004   -4.680   -4.558   -4.242   -5.579   -5.659   -4.514   -3.554   -5.236   -4.994   -5.213   -4.520   -4.204   -5.178   -3.336   -3.234   -5.871   -4.383   -4.337   -4.334   -4.097   -5.852   -4.829   -4.633   -4.439   -5.418   -5.569   -3.554   -5.347   -4.373   -5.270   -3.656   -5.430   -6.073   -5.431   -5.231   -5.240   -5.725   -4.897   -4.226   -5.156   -7.243   -5.708   -5.233   -5.941   -5.666   -5.484   -4.952 
DATE 2017:116:12:25:51 obsn   2 az  45 el 52 freq_MHz  1423.0000 Tsys 165.000 Tant 289.209 vlsr  -12.21 glat -2.085 glon 111.575 azoff 8.03 eloff 0.00 source Cass 
Fstart 1421.997 fstop 1424.003 spacing 0.009375 bw    2.400 fbw    2.000 MHz nfreq 256 nsam 5242880 npoint 214 integ    29 sigma    0.628 bsw 5
Spectrum     27 integration periods
   2.704    1.563    3.843    2.482    2.117    2.929    2.143    2.007    1.644    2.066    1.799    1.182    2.470    2.038    2.297    1.204    1.102    1.083    1.986    0.523    0.963    1.268    0.887    0.715    0.666    3.038    1.561    1.958    1.019    0.958    1.270    1.017    0.412   -0.309    1.315    0.999    0.765    0.448    2.009    1.103    1.920    0.436    0.826    1.013    0.972    0.491    1.817    1.373    0.280    0.999    0.706   -0.034    0.147    0.545    0.305    0.735   -0.856    0.552    0.326    0.382    0.393    0.915    0.011    0.785    0.125    0.554    0.369    0.750    0.591    1.565    0.659    0.410    1.075   -0.700    0.716   -0.836    1.244   -0.699    1.010   -1.490   -0.409   -0.292   -0.660    0.430    0.580   -0.667   -0.540   -0.467   -0.284    0.813   -0.399   -0.527   -0.728   -0.879    0.455   -0.764   -0.294   -0.375   -0.540    1.136   -0.567   -1.442    0.020   -1.081   -0.061   -1.639   -0.627   -0.055   -1.385   -1.859   -0.720   -0.694   -1.355   -1.726   -1.967   -0.326   -2.123   -1.168   -1.658   -2.327   -2.549   -1.480   -1.994   -2.913   -1.933   -2.413   -3.024   -2.346   -0.962   -0.812   -1.407   -1.643   -1.998   -1.928   -1.857   -1.468   -2.080   -1.536   -2.119   -2.046   -2.872   -1.620   -2.726   -2.598   -2.437   -3.250   -2.712   -1.989   -1.539   -1.823   -3.233   -2.561   -2.973   -2.790   -2.461   -2.701   -3.883   -2.042   -2.794   -5.104   -2.593   -2.510   -2.337   -3.083   -3.171   -2.398   -2.951   -2.917   -2.384   -3.210   -3.248   -3.919   -3.410   -2.666   -3.300   -4.065   -3.212   -2.999   -3.335   -3.731   -1.846   -1.185   -4.068   -3.424   -3.635   -2.910   -1.983   -3.589   -3.282   -3.197   -3.062   -3.804   -4.072   -2.163   -3.302   -2.543   -3.695   -2.087   -3.499   -3.870   -3.833   -3.449   -3.143   -3.760   -3.783   -2.691   -4.470   -5.150   -4.591   -3.579   -3.487   -4.237   -5.018   -3.598 
DATE 2017:116:12:26:14 obsn   3 az  37 el 52 freq_MHz  1423.0000 Tsys 165.000 Tant 292.349 vlsr  -12.21 glat -2.085 glon 111.575 azoff 0.00 eloff 0.00 source Cass 
Fstart 1421.997 fstop 1424.003 spacing 0.009375 bw    2.400 fbw    2.000 MHz nfreq 256 nsam 5242880 npoint 214 integ    40 sigma    0.536 bsw 6
Spectrum     37 integration periods
   2.808    1.787    3.618    2.651    2.361    2.507    2.567    2.282    1.733    2.108    2.250    1.435    2.583    2.340    1.881    1.937    1.538    1.414    1.818    0.810    1.183    1.183    1.536    1.504    1.051    3.132    1.406    2.035    0.533    1.422    2.059    1.853    0.630    0.558    1.808    1.421    0.899    1.089    2.396    1.722    1.715    1.009    0.865    1.053    1.087    1.111    1.621    1.412    0.394    0.807    1.364    0.608    1.120    0.753    0.644    1.149   -0.547    0.934    1.254    0.789    1.409    0.953    0.604    1.315    0.582    0.855    0.545    0.935    0.497    1.447    1.259    1.190    1.493    0.049    0.944   -0.177    1.605   -0.410    0.606   -2.888    0.158   -0.305    0.065    0.281    1.295   -0.021   -0.399   -0.025    0.239    0.846    0.327    0.593   -0.077   -0.210    0.710   -0.045    0.311    0.395   -0.332    1.292   -0.252   -0.940    0.551   -0.066    0.875   -0.566   -0.176    0.174   -1.247   -0.545    0.229   -0.203   -1.175   -0.902   -1.321   -0.211   -0.605   -0.257   -0.945   -1.477   -1.874   -0.284   -1.872   -2.119   -0.892   -1.227   -1.490   -0.779   -0.375   -0.078   -0.713   -1.077   -1.079   -0.873   -1.584   -1.131   -0.923   -0.908   -1.520   -1.099   -2.281   -0.378   -1.310   -1.815   -1.390   -2.227   -2.012   -0.891   -0.679   -1.220   -2.194   -1.406   -1.984   -1.828   -1.550   -2.120   -2.913   -1.505   -2.041   -3.720   -1.879   -1.327   -1.696   -1.874   -2.077   -1.629   -2.481   -1.781   -1.874   -1.962   -2.565   -2.662   -1.863   -1.612   -2.042   -2.739   -1.576   -2.122   -2.874   -2.285   -1.150   -0.231   -3.028   -2.468   -2.384   -2.085   -1.113   -2.235   -1.953   -2.393   -2.255   -2.088   -3.250   -1.077   -2.208   -1.532   -3.094   -1.135   -2.454   -2.766   -2.965   -2.380   -2.644   -2.332   -2.254   -1.412   -3.144   -3.519   -3.052   -2.492   -1.946   -2.954   -4.141   -3.408 
DATE 2017:116:12:26:38 obsn   4 az  29 el 52 freq_MHz  1423.0000 Tsys 165.000 Tant 295.447 vlsr  -12.21 glat -2.085 glon 111.575 azoff -8.05 eloff 0.00 source Cass 
Fstart 1421.997 fstop 1424.003 spacing 0.009375 bw    2.400 fbw    2.000 MHz nfreq 256 nsam 5242880 npoint 214 integ    51 sigma    0.476 bsw 7
Spectrum     47 integration periods
   2.475    2.216    3.402    2.135    2.201    1.622    2.611    2.405    1.610    2.106    1.911    1.131    2.122    1.984    1.324    1.771    1.382    1.309    1.490    0.706    1.184    0.791    1.564    1.368    1.060    2.777    1.295    1.593    0.031    1.060    1.722    1.466    0.492    0.674    1.202    1.050    0.803    0.602    2.243    1.300    1.435    0.718    0.658    0.973    0.743    0.630    1.587    1.083   -0.098    0.590    0.919    0.843    1.232    0.227    0.511    1.209   -0.316    0.677    0.762    0.477    0.801    0.404   -0.115    1.188    0.784    0.756    0.251    0.445    0.202    0.992    0.450    0.930    0.722    0.224    0.710   -0.636    0.956   -0.946   -0.780   -3.211   -0.259   -0.319    0.060    0.000    0.426   -0.550   -0.861   -0.155    0.186    0.094   -0.188    0.175    0.261   -0.327    0.413    0.185    0.227    0.129   -0.568    0.589   -0.520   -1.018    0.058   -0.482    0.020   -0.893   -0.159   -0.082   -1.336   -1.024   -0.179   -0.681   -1.623   -0.964   -1.422   -0.445   -0.935   -0.540   -0.608   -1.699   -1.975   -0.840   -1.904   -1.554   -1.069   -0.970   -1.596   -1.202   -0.750   -0.436   -1.162   -0.835   -0.957   -1.399   -1.519   -1.532   -1.338   -1.488   -1.713   -1.316   -2.057   -0.654   -1.478   -2.262   -1.754   -2.374   -1.858   -1.126   -1.182   -1.735   -2.117   -1.956   -2.477   -1.959   -1.348   -2.360   -2.696   -1.685   -2.075   -3.645   -2.341   -1.854   -1.840   -2.152   -2.292   -1.838   -2.836   -2.243   -2.311   -2.501   -3.228   -2.349   -2.149   -1.995   -2.404   -2.838   -2.139   -2.253   -3.186   -2.729   -1.481   -0.301   -2.748   -2.480   -2.735   -2.121   -1.610   -2.296   -2.141   -2.530   -2.476   -2.446   -2.709   -1.902   -1.744   -1.743   -3.244   -1.636   -2.679   -2.878   -2.902   -2.305   -2.433   -2.659   -2.957   -1.969   -2.994   -3.297   -3.157   -2.853   -2.021   -2.889   -3.640   -3.726 
DATE 2017:116:12:27:02 obsn   5 az  37 el 52 freq_MHz  1423.0000 Tsys 165.000 Tant 286.539 vlsr  -12.21 glat -2.085 glon 111.575 azoff 0.00 eloff 0.00 source Cass 
Fstart 1421.997 fstop 1424.003 spacing 0.009375 bw    2.400 fbw    2.000 MHz nfreq 256 nsam 5242880 npoint 214 integ    62 sigma    0.432 bsw 8
Spectrum     57 integration periods
   2.279    1.993    2.764    1.737    2.159    1.240    2.179    1.831    1.380    1.576    1.638    0.938    2.287    1.719    1.237    1.497    1.113    1.108    1.240    0.566    0.911    0.963    1.232    1.227    1.038    2.737    0.890    1.363    0.303    0.833    1.440    1.261    0.313    0.577    0.738    0.735    0.454    0.591    1.822    1.204    1.112    0.613    0.394    0.847    0.485    0.352    1.002    0.899   -0.251    0.423    0.572    0.470    0.875   -0.480    0.368    0.896   -0.522    0.368    0.230    0.099    0.274    0.309    0.128    0.730    0.399    0.381   -0.205    0.078   -0.159    0.689    0.082    0.523    0.357   -0.084    0.426   -0.739    0.600   -1.227   -0.035   -2.536   -0.112   -0.543   -0.535   -0.167    0.348   -0.795   -1.001   -0.390   -0.412   -0.285   -0.570   -0.196   -0.298   -1.133   -0.164   -0.102   -0.274   -0.686   -0.780    0.246   -0.686   -1.331   -0.346   -0.624   -0.463   -1.313   -0.584   -0.781   -1.564   -1.486   -1.062   -1.096   -1.777   -1.355   -1.986   -0.724   -1.559   -1.154   -1.009   -2.214   -1.897   -1.573   -2.321   -2.032   -1.503   -1.407   -1.920   -1.806   -0.882   -0.701   -1.716   -1.491   -1.303   -1.973   -2.067   -1.726   -1.900   -2.106   -2.510   -1.468   -2.144   -1.387   -1.674   -2.731   -2.329   -2.793   -2.279   -2.013   -1.805   -2.379   -2.482   -2.415   -2.610   -2.406   -2.317   -2.669   -2.860   -2.429   -2.528   -4.309   -2.981   -2.370   -2.230   -2.768   -2.830   -2.158   -3.073   -2.843   -2.721   -2.815   -3.804   -2.753   -2.670   -2.692   -3.096   -3.152   -2.875   -2.897   -3.490   -3.014   -2.021   -0.823   -3.285   -2.882   -3.409   -2.338   -2.125   -2.933   -2.330   -2.921   -2.916   -3.156   -3.130   -2.126   -2.393   -2.427   -3.336   -2.201   -2.806   -3.375   -3.391   -2.879   -2.593   -3.516   -3.127   -2.552   -3.339   -3.806   -3.565   -3.220   -2.577   -3.209   -3.854   -4.288 
DATE 2017:116:12:27:26 obsn   6 az  45 el 52 freq_MHz  1423.0000 Tsys 165.000 Tant 286.636 vlsr  -12.21 glat -2.085 glon 111.575 azoff 8.07 eloff 0.00 source Cass 
Fstart 1421.997 fstop 1424.003 spacing 0.009375 bw    2.400 fbw    2.000 MHz nfreq 256 nsam 5242880 npoint 214 integ    73 sigma    0.398 bsw 9
Spectrum     67 integration periods
 454.818  454.633  451.858  452.071  453.856  452.158  451.820  451.058  451.967  452.808  454.035  451.671  452.090  452.872  453.595  451.950  453.721  453.499  454.865  453.635  452.704  454.030  453.504  453.865  453.135  453.695  453.841  454.170  455.329  453.797  452.845  453.656  452.774  452.576  452.772  452.836  454.421  452.502  452.787  453.553  454.400  453.036  454.367  454.025  455.097  453.713  454.486  454.994  455.526  454.343  454.525  454.684  455.061  454.689  454.242  454.362  455.943  454.662  454.191  454.249  453.543  454.730  453.838  453.109  453.579  453.895  453.591  452.870  453.172  453.518  455.356  453.389  453.299  453.245  453.440  452.940  453.584  453.267  459.289  469.580  454.659  452.848  454.114  454.081  454.371  454.417  455.102  455.291  454.738  453.277  455.130  454.283  455.144  455.199  455.621  454.601  455.154  454.561  454.288  455.735  454.886  455.615  455.133  455.475  455.511  456.042  456.685  456.086  455.500  455.364  455.633  456.131  455.927  457.370  457.765  456.559  456.691  458.604  456.720  457.557  457.415  458.568  458.048  459.212  458.231  459.210  459.246  458.723  459.838  459.284  459.430  460.063  460.100  458.535  457.933  458.150  458.975  458.862  460.011  459.134  457.860  457.603  457.866  458.111  457.787  457.085  458.547  458.269  457.958  457.840  458.233  458.012  458.023  458.158  458.757  458.679  458.369  457.707  457.655  458.625  458.511  459.621  458.465  458.480  459.140  460.216  458.910  459.153  459.720  459.932  460.331  459.056  459.207  459.376  459.372  459.271  459.780  459.402  459.084  459.884  459.690  460.041  460.113  459.664  460.827  460.255  460.345  458.967  460.110  461.134  460.782  460.171  460.229  459.876  460.164  460.576  458.926  459.762  458.026  459.247  460.324  460.230  460.264  459.903  459.387  460.903  460.657  460.627  461.675  459.738  460.764  459.885  465.441  464.300 
DATE 2017:116:12:27:39 obsn   7 az  45 el 52 freq_MHz  1423.0000 Tsys 165.000 Tant 281.752 vlsr  -12.21 glat -2.085 glon 111.575 azoff 8.07 eloff 0.00 source Cass 
Fstart 1421.997 fstop 1424.003 spacing 0.009375 bw    2.400 fbw    2.000 MHz nfreq 256 nsam 5242880 npoint 214 integ    84 sigma    0.372 bsw 9
Spectrum     77 integration periods
   2.010    2.120    2.421    1.780    2.218    1.550    1.918    1.993    1.252    1.627    1.710    1.124    2.048    1.736    1.455    0.945    0.955    1.233    1.099    0.514    0.821    1.267    1.132    1.022    0.835    2.369    0.720    1.095    0.528    1.023    1.125    1.145    0.571    0.670    0.747    0.606    0.956    0.676    1.757    1.018    1.003    0.301    0.710    0.938    0.376    0.555    0.878    0.700    0.381    0.338    0.800    0.599    0.774   -0.151    0.722    0.463   -0.516    0.431    0.376    0.337    0.241    0.513    0.480    0.415    0.395    0.602   -0.028    0.548    0.286    0.515    0.568    0.471    0.409    0.349    0.365   -0.232    0.751   -0.772    0.185   -4.264   -0.031   -0.321   -0.404    0.147    0.489   -0.204   -0.895   -0.036   -0.061   -0.001   -0.469   -0.566    0.077   -0.768    0.142    0.067    0.092   -0.354   -0.326    0.226   -0.410   -0.790   -0.371   -0.426   -0.242   -0.775   -0.419   -0.100   -1.204   -1.368   -0.851   -0.644   -1.437   -1.118   -1.497   -0.679   -1.274   -0.874   -0.991   -2.053   -1.294   -0.607   -1.771   -1.564   -1.078   -0.751   -1.544   -1.647   -0.725   -0.830   -1.150   -0.988   -0.933   -1.551   -1.526   -1.005   -1.452   -1.513   -1.940   -1.070   -1.809   -1.060   -1.287   -2.387   -1.859   -1.805   -1.870   -1.555   -1.699   -1.628   -1.539   -1.550   -1.999   -2.025   -1.720   -1.880   -2.442   -2.606   -2.307   -3.470   -2.396   -1.638   -1.820   -2.122   -2.044   -1.385   -2.623   -2.417   -1.982   -2.034   -3.234   -2.031   -2.369   -2.305   -2.416   -2.367   -2.360   -2.374   -2.755   -2.319   -1.554   -0.913   -2.513   -2.185   -2.876   -1.718   -1.346   -2.134   -2.067   -2.564   -2.688   -2.873   -2.565   -1.517   -1.807   -1.741   -2.523   -1.650   -2.177   -2.621   -2.743   -1.915   -1.875   -2.767   -2.375   -1.918   -2.649   -2.892   -2.861   -2.742   -2.120   -2.495   -3.829   -4.278 
DATE 2017:116:12:28:03 obsn   8 az  37 el 52 freq_MHz  1423.0000 Tsys 165.000 Tant 290.110 vlsr  -12.21 glat -2.085 glon 111.575 azoff 0.00 eloff 0.00 source Cass 
Fstart 1421.997 fstop 1424.003 spacing 0.009375 bw    2.400 fbw    2.000 MHz nfreq 256 nsam 5242880 npoint 214 integ    95 sigma    0.350 bsw 10
Spectrum     87 integration periods
   2.024    2.074    2.454    1.736    1.846    1.589    2.187    2.168    1.392    1.595    1.791    1.280    2.236    1.673    1.088    1.121    0.942    1.217    1.329    0.796    0.901    1.098    1.302    0.992    1.049    2.294    0.991    1.492    0.494    1.197    1.192    1.057    0.734    0.877    0.859    0.661    0.782    0.915    1.673    1.165    0.862    0.376    0.742    0.993    0.443    0.641    0.951    0.720    0.630    0.276    0.774    0.717    0.665   -0.273    0.690    0.446   -0.391    0.539    0.527    0.360    0.090    0.594    0.542    0.169    0.522    0.674    0.190    0.589    0.425    0.521    0.566    0.456    0.636    0.245    0.447   -0.093    0.783   -0.743   -0.256   -4.496    0.074    0.031   -0.342    0.316    0.488   -0.025   -0.756   -0.136    0.016    0.172   -0.486   -0.477    0.148   -0.676   -0.118    0.068    0.237   -0.059   -0.113    0.281   -0.077   -0.747   -0.479   -0.132   -0.340   -0.847   -0.279   -0.213   -1.055   -1.258   -0.547   -0.636   -1.453   -0.993   -1.318   -0.716   -1.163   -1.036   -0.853   -1.780   -1.278   -0.539   -1.630   -1.062   -0.969   -0.569   -1.523   -1.401   -0.695   -0.811   -1.071   -1.025   -0.995   -1.375   -1.509   -0.997   -1.353   -1.453   -1.897   -1.223   -1.543   -1.088   -1.171   -2.275   -1.673   -1.445   -1.817   -1.434   -1.598   -1.446   -1.448   -1.311   -1.995   -1.917   -1.646   -1.957   -2.303   -2.147   -2.259   -3.026   -2.126   -1.518   -1.502   -1.879   -1.659   -1.457   -2.543   -2.472   -1.832   -1.835   -3.078   -1.766   -2.255   -2.183   -2.148   -2.234   -2.178   -2.251   -2.425   -2.196   -1.566   -0.993   -2.388   -1.758   -2.847   -1.709   -1.543   -2.108   -2.194   -2.459   -2.833   -2.605   -2.416   -1.513   -1.660   -1.683   -2.345   -1.434   -1.948   -2.494   -2.696   -1.848   -1.737   -2.397   -2.204   -1.994   -2.566   -2.742   -2.709   -2.518   -1.798   -2.496   -3.833   -4.216 
DATE 2017:116:12:28:27 obsn   9 az  29 el 52 freq_MHz  1423.0000 Tsys 165.000 Tant 297.348 vlsr  -12.21 glat -2.085 glon 111.575 azoff -8.09 eloff 0.00 source Cass 
Fstart 1421.997 fstop 1424.003 spacing 0.009375 bw    2.400 fbw    2.000 MHz nfreq 256 nsam 5242880 npoint 214 integ   106 sigma    0.331 bsw 11
Spectrum     97 integration periods
   1.950    2.117    2.307    1.682    1.816    1.430    2.034    1.913    1.383    1.476    1.703    1.213    2.000    1.568    0.988    0.808    0.843    1.050    1.215    0.636    0.632    0.984    1.177    0.961    0.824    1.929    0.981    1.338    0.353    1.033    1.109    1.014    0.566    0.540    0.649    0.508    0.596    0.612    1.511    0.886    0.721    0.440    0.494    0.775    0.298    0.616    0.650    0.598    0.353   -0.002    0.444    0.677    0.516   -0.481    0.617    0.540   -0.505    0.320    0.231    0.103   -0.254    0.367    0.648    0.055    0.390    0.453   -0.040    0.558    0.030    0.273    0.372    0.286    0.563   -0.141    0.214   -0.306    0.461   -0.758   -0.265   -4.139   -0.041   -0.198   -0.529    0.016    0.124   -0.109   -1.027   -0.412   -0.407   -0.296   -0.716   -0.761   -0.198   -0.961   -0.202   -0.318   -0.131   -0.312   -0.298    0.058   -0.328   -0.845   -0.796   -0.477   -0.585   -1.327   -0.476   -0.502   -1.207   -1.545   -1.046   -0.732   -1.671   -1.138   -1.474   -0.831   -1.196   -1.314   -1.246   -2.071   -1.659   -0.839   -1.886   -1.345   -1.435   -0.936   -1.886   -1.661   -1.130   -1.175   -1.354   -1.405   -1.368   -1.813   -1.926   -1.405   -1.457   -1.757   -2.068   -1.451   -1.630   -1.420   -1.693   -2.592   -1.900   -1.783   -2.178   -1.776   -1.773   -1.719   -1.758   -1.607   -2.319   -2.174   -1.933   -2.290   -2.601   -2.465   -2.693   -3.176   -2.368   -1.868   -1.842   -2.263   -2.103   -1.885   -2.969   -2.688   -1.999   -2.094   -3.138   -1.904   -2.485   -2.502   -2.484   -2.571   -2.586   -2.713   -2.827   -2.525   -2.028   -1.394   -2.767   -2.156   -3.227   -2.302   -1.871   -2.478   -2.786   -2.636   -2.997   -2.854   -2.766   -1.888   -2.064   -1.867   -2.824   -2.067   -2.466   -2.953   -3.153   -2.052   -2.120   -2.808   -2.620   -2.308   -3.037   -3.099   -3.145   -2.921   -2.082   -2.927   -4.008   -4.292 
DATE 2017:116:12:28:51 obsn  10 az  37 el 52 freq_MHz  1423.0000 Tsys 165.000 Tant 289.134 vlsr  -12.21 glat -2.085 glon 111.575 azoff 0.00 eloff 0.00 source Cass 
Fstart 1421.997 fstop 1424.003 spacing 0.009375 bw    2.400 fbw    2.000 MHz nfreq 256 nsam 5242880 npoint 214 integ   117 sigma    0.315 bsw 12
Spectrum    107 integration periods
   1.920    1.900    2.170    1.558    1.591    1.439    1.842    1.790    1.278    1.386    1.368    1.141    1.932    1.514    0.983    0.770    0.691    0.975    1.223    0.572    0.750    0.941    1.010    0.849    0.687    1.880    0.893    1.162    0.489    0.874    0.947    0.964    0.332    0.431    0.745    0.431    0.643    0.481    1.320    0.617    0.639    0.293    0.305    0.401    0.105    0.567    0.494    0.388    0.366   -0.109    0.307    0.447    0.316   -0.634    0.587    0.402   -0.699    0.100    0.190   -0.147   -0.343    0.210    0.604    0.016    0.328    0.268   -0.164    0.461   -0.123    0.219    0.323    0.195    0.720   -0.179    0.107   -0.488    0.309   -0.725   -0.590   -4.182   -0.207   -0.212   -0.577   -0.293   -0.023   -0.267   -1.243   -0.467   -0.445   -0.375   -0.791   -0.814   -0.301   -1.120   -0.448   -0.455   -0.448   -0.634   -0.600   -0.194   -0.484   -1.057   -0.917   -0.574   -0.868   -1.596   -0.677   -0.782   -1.271   -1.768   -1.232   -0.837   -1.663   -1.441   -1.425   -1.003   -1.280   -1.498   -1.502   -1.888   -1.744   -1.077   -1.893   -1.442   -1.529   -1.233   -1.888   -1.718   -1.187   -1.273   -1.588   -1.578   -1.562   -1.897   -1.997   -1.553   -1.455   -1.732   -2.305   -1.782   -1.798   -1.561   -2.082   -2.590   -1.907   -1.733   -2.433   -2.048   -1.903   -1.729   -2.101   -1.767   -2.492   -2.266   -2.095   -2.397   -2.641   -2.431   -2.622   -3.288   -2.382   -1.962   -2.174   -2.559   -2.471   -2.265   -2.887   -2.872   -2.154   -2.292   -3.259   -2.079   -2.807   -2.611   -2.455   -2.749   -2.679   -2.766   -2.934   -2.734   -2.175   -1.668   -2.836   -2.366   -3.269   -2.470   -2.135   -2.715   -2.793   -2.627   -3.085   -3.143   -2.834   -2.125   -2.076   -2.180   -2.971   -2.283   -2.605   -3.102   -3.337   -2.270   -2.226   -2.892   -2.741   -2.389   -3.292   -3.324   -3.342   -3.163   -2.294   -3.064   -4.062   -4.348 
DATE 2017:116:12:29:15 obsn  11 az  45 el 52 freq_MHz  1423.0000 Tsys 165.000 Tant 281.541 vlsr  -12.21 glat -2.085 glon 111.575 azoff 8.11 eloff 0.00 source Cass 
Fstart 1421.997 fstop 1424.003 spacing 0.009375 bw    2.400 fbw    2.000 MHz nfreq 256 nsam 5242880 npoint 214 integ   128 sigma    0.301 bsw 13
Spectrum    117 integration periods
   2.235    2.110    2.399    2.054    1.936    1.801    2.080    2.196    1.603    1.745    1.826    1.409    2.197    1.742    1.447    0.914    1.073    1.482    1.542    0.826    1.228    1.156    1.173    1.234    1.058    1.987    1.166    1.462    0.990    1.111    1.266    1.302    0.692    0.679    1.050    0.807    1.158    0.781    1.690    1.015    0.777    0.652    0.521    0.712    0.490    0.931    0.798    0.920    0.807    0.170    0.527    0.747    0.638   -0.196    0.830    0.764   -0.151    0.489    0.495    0.321    0.056    0.457    1.048    0.376    0.750    0.713    0.363    0.814    0.293    0.472    0.767    0.652    1.000    0.079    0.442    0.055    0.639   -0.227   -0.101   -4.202    0.158    0.123   -0.105    0.190    0.276   -0.139   -0.969   -0.046   -0.041   -0.042   -0.298   -0.452    0.114   -0.535    0.055   -0.170   -0.038   -0.151   -0.277    0.189   -0.111   -0.603   -0.432   -0.166   -0.424   -0.990   -0.186   -0.482   -0.814   -1.367   -1.020   -0.405   -1.291   -1.223   -0.983   -0.474   -0.697   -1.052   -1.046   -1.474   -1.354   -0.758   -1.481   -0.936   -1.029   -0.899   -1.425   -1.320   -0.666   -0.984   -1.140   -1.097   -1.131   -1.642   -1.554   -1.205   -1.105   -1.363   -1.816   -1.426   -1.312   -1.020   -1.601   -2.056   -1.413   -1.406   -1.902   -1.608   -1.528   -1.429   -1.686   -1.415   -2.100   -1.920   -1.702   -1.994   -2.105   -2.054   -2.164   -2.736   -2.066   -1.666   -1.778   -2.195   -2.071   -1.911   -2.397   -2.261   -1.736   -1.784   -2.840   -1.646   -2.124   -2.104   -1.973   -2.372   -2.194   -2.212   -2.459   -2.340   -1.670   -1.323   -2.306   -1.939   -2.727   -2.082   -1.775   -2.075   -2.257   -2.136   -2.485   -2.463   -2.261   -1.700   -1.500   -1.685   -2.486   -1.745   -2.273   -2.715   -2.993   -1.700   -1.739   -2.466   -2.286   -1.994   -2.726   -2.756   -2.827   -2.645   -1.989   -2.595   -3.744   -4.050 
DATE 2017:116:12:29:39 obsn  12 az  37 el 52 freq_MHz  1423.0000 Tsys 165.000 Tant 289.544 vlsr  -12.21 glat -2.085 glon 111.575 azoff 0.00 eloff 0.00 source Cass 
Fstart 1421.997 fstop 1424.003 spacing 0.009375 bw    2.400 fbw    2.000 MHz nfreq 256 nsam 5242880 npoint 214 integ   139 sigma    0.289 bsw 14
Spectrum    127 integration periods
   2.439    2.330    2.406    2.221    2.081    2.047    2.343    2.557    1.715    1.864    1.811    1.373    2.352    1.805    1.572    1.156    1.311    1.497    1.695    1.166    1.387    1.480    1.294    1.458    1.262    2.169    1.328    1.670    1.267    1.167    1.364    1.563    0.984    0.953    1.180    0.780    1.201    0.971    1.977    1.135    0.896    0.875    0.706    0.839    0.815    1.021    0.829    0.958    0.957    0.421    0.682    0.990    0.861    0.096    0.964    0.899    0.123    0.661    0.693    0.454    0.149    0.655    1.226    0.509    0.954    1.056    0.685    1.036    0.515    0.572    0.921    0.899    1.035    0.231    0.521    0.290    0.871    0.041    0.141   -4.406    0.441    0.379    0.141    0.372    0.433    0.121   -0.550    0.122    0.158    0.081   -0.132   -0.205    0.360   -0.377    0.295    0.029    0.082    0.080   -0.102    0.229    0.116   -0.400   -0.177   -0.156   -0.269   -0.745   -0.007   -0.248   -0.419   -1.154   -0.800   -0.187   -1.087   -0.966   -0.798   -0.291   -0.516   -0.904   -0.903   -1.493   -1.069   -0.520   -1.224   -0.808   -0.851   -0.815   -1.227   -1.202   -0.593   -0.768   -0.981   -0.764   -0.817   -1.367   -1.381   -0.997   -0.890   -1.013   -1.775   -1.152   -1.089   -0.949   -1.326   -1.869   -1.181   -1.111   -1.714   -1.304   -1.188   -1.403   -1.636   -1.289   -1.964   -1.781   -1.519   -1.795   -1.864   -1.642   -1.992   -2.439   -1.794   -1.607   -1.533   -1.937   -1.734   -1.670   -2.159   -2.001   -1.444   -1.499   -2.421   -1.453   -1.933   -1.909   -1.775   -2.017   -2.015   -2.018   -2.201   -2.010   -1.502   -1.152   -2.050   -1.721   -2.544   -1.888   -1.312   -1.711   -2.027   -1.953   -2.194   -2.190   -1.779   -1.344   -1.282   -1.505   -2.021   -1.591   -2.042   -2.410   -2.741   -1.446   -1.640   -2.251   -2.046   -1.774   -2.419   -2.460   -2.616   -2.356   -1.817   -2.171   -3.521   -3.914 
DATE 2017:116:12:30:03 obsn  13 az  29 el 52 freq_MHz  1423.0000 Tsys 165.000 Tant 295.367 vlsr  -12.21 glat -2.085 glon 111.575 azoff -8.12 eloff 0.00 source Cass 
Fstart 1421.997 fstop 1424.003 spacing 0.009375 bw    2.400 fbw    2.000 MHz nfreq 256 nsam 5242880 npoint 214 integ   150 sigma    0.279 bsw 15
Spectrum    137 integration periods
   2.384    2.078    2.306    2.112    1.978    1.994    2.241    2.427    1.747    1.732    1.651    1.225    2.167    1.549    1.495    1.144    1.259    1.305    1.625    1.286    1.340    1.425    1.157    1.276    1.124    1.967    1.203    1.705    1.109    0.986    1.314    1.367    0.889    0.863    1.056    0.587    1.077    0.975    1.967    1.077    0.513    0.818    0.474    0.674    0.781    0.822    0.706    0.850    0.858    0.390    0.460    0.748    0.776    0.000    0.692    0.652   -0.069    0.535    0.455    0.385   -0.044    0.638    1.158    0.442    0.794    0.814    0.472    0.895    0.257    0.507    0.661    0.795    0.788    0.106    0.390    0.027    0.796   -0.035    0.018   -4.256    0.153    0.225   -0.075    0.206    0.356   -0.040   -0.640   -0.052    0.004   -0.078   -0.387   -0.304    0.192   -0.489    0.063   -0.168   -0.159    0.131   -0.228    0.095   -0.065   -0.616   -0.333   -0.489   -0.454   -0.783   -0.222   -0.513   -0.528   -1.317   -0.971   -0.224   -1.160   -1.170   -0.941   -0.443   -0.782   -1.152   -1.102   -1.642   -1.233   -0.784   -1.229   -0.968   -1.105   -0.942   -1.412   -1.468   -0.782   -0.901   -1.212   -0.933   -0.929   -1.531   -1.340   -1.190   -0.940   -1.225   -1.892   -1.424   -1.322   -1.168   -1.514   -2.153   -1.279   -1.389   -1.814   -1.479   -1.450   -1.462   -1.676   -1.415   -2.157   -1.930   -1.579   -1.861   -2.021   -1.757   -2.026   -2.576   -1.931   -1.773   -1.731   -2.132   -1.778   -2.010   -2.453   -2.133   -1.580   -1.641   -2.644   -1.679   -2.095   -2.025   -1.956   -2.101   -2.185   -2.283   -2.485   -2.264   -1.761   -1.323   -2.201   -1.921   -2.660   -2.140   -1.492   -1.903   -2.090   -2.014   -2.522   -2.356   -1.817   -1.654   -1.594   -1.814   -2.263   -1.962   -2.404   -2.520   -2.819   -1.742   -1.763   -2.521   -2.217   -2.040   -2.560   -2.643   -2.742   -2.619   -2.084   -2.314   -3.758   -4.072 
DATE 2017:116:12:30:27 obsn  14 az  37 el 52 freq_MHz  1423.0000 Tsys 165.000 Tant 286.521 vlsr  -12.21 glat -2.085 glon 111.575 azoff 0.00 eloff 0.00 source Cass 
Fstart 1421.997 fstop 1424.003 spacing 0.009375 bw    2.400 fbw    2.000 MHz nfreq 256 nsam 5242880 npoint 214 integ   161 sigma    0.269 bsw 16
Spectrum    147 integration periods
   2.156    1.905    2.216    1.990    1.947    1.956    2.276    2.202    1.678    1.596    1.708    1.150    1.795    1.455    1.328    1.118    1.161    1.281    1.447    1.122    1.268    1.191    1.018    1.175    1.017    1.821    1.132    1.599    1.024    0.849    1.230    1.239    0.807    0.637    0.834    0.481    0.905    0.885    1.700    0.958    0.418    0.790    0.387    0.605    0.596    0.663    0.588    0.687    0.680    0.274    0.243    0.564    0.610   -0.025    0.597    0.510   -0.225    0.426    0.147    0.407   -0.062    0.493    0.911    0.201    0.568    0.652    0.362    0.691    0.211    0.288    0.469    0.611    0.744   -0.015    0.199    0.130    0.575   -0.173   -0.006   -3.998    0.076    0.059   -0.139    0.076    0.097   -0.434   -0.797   -0.267   -0.190   -0.281   -0.602   -0.534   -0.062   -0.570   -0.087   -0.457   -0.325   -0.034   -0.422   -0.130   -0.329   -0.801   -0.538   -0.672   -0.703   -0.880   -0.483   -0.643   -0.713   -1.546   -1.251   -0.483   -1.486   -1.314   -1.056   -0.588   -1.026   -1.221   -1.257   -1.951   -1.456   -0.979   -1.331   -1.161   -1.383   -1.075   -1.629   -1.789   -0.994   -1.155   -1.443   -1.250   -1.113   -1.696   -1.489   -1.390   -1.186   -1.378   -2.076   -1.583   -1.587   -1.485   -1.741   -2.329   -1.526   -1.622   -2.038   -1.609   -1.810   -1.689   -1.983   -1.620   -2.257   -2.048   -1.742   -1.978   -2.162   -1.924   -2.210   -2.762   -2.186   -2.145   -2.009   -2.356   -2.091   -2.249   -2.645   -2.277   -1.849   -1.960   -2.829   -1.945   -2.346   -2.303   -2.247   -2.342   -2.338   -2.423   -2.507   -2.547   -2.087   -1.570   -2.526   -2.145   -2.797   -2.355   -1.700   -2.145   -2.306   -2.247   -2.634   -2.472   -1.955   -1.934   -1.864   -2.075   -2.456   -2.120   -2.453   -2.668   -2.967   -1.979   -1.997   -2.670   -2.574   -2.343   -2.871   -2.922   -2.912   -2.842   -2.261   -2.576   -3.926   -4.226 
DATE 2017:116:12:30:51 obsn  15 az  45 el 52 freq_MHz  1423.0000 Tsys 165.000 Tant 284.056 vlsr  -12.21 glat -2.085 glon 111.575 azoff 8.14 eloff 0.00 source Cass 
Fstart 1421.997 fstop 1424.003 spacing 0.009375 bw    2.400 fbw    2.000 MHz nfreq 256 nsam 5242880 npoint 214 integ   171 sigma    0.260 bsw 17
Spectrum    157 integration periods
   2.209    1.930    2.156    2.106    2.128    2.142    2.279    2.235    1.942    1.725    1.731    1.257    1.931    1.553    1.505    1.205    1.229    1.465    1.525    1.301    1.355    1.350    1.274    1.326    1.095    1.892    1.090    1.732    1.198    0.925    1.248    1.259    0.836    0.690    0.818    0.522    1.053    1.027    1.678    0.984    0.526    0.925    0.504    0.764    0.710    0.820    0.760    0.642    0.856    0.330    0.330    0.705    0.619    0.119    0.780    0.652   -0.135    0.413    0.118    0.448    0.184    0.446    1.051    0.289    0.679    0.680    0.395    0.683    0.260    0.426    0.613    0.683    0.693    0.051    0.245    0.338    0.727   -0.072    0.023   -4.059    0.217    0.130    0.026    0.106    0.155   -0.363   -0.666   -0.067   -0.101   -0.122   -0.554   -0.366   -0.051   -0.574   -0.007   -0.275   -0.266    0.086   -0.295    0.003   -0.249   -0.704   -0.339   -0.710   -0.628   -0.766   -0.350   -0.597   -0.624   -1.424   -1.147   -0.439   -1.312   -1.188   -0.987   -0.521   -0.854   -1.049   -1.141   -1.888   -1.249   -0.786   -1.306   -1.162   -1.211   -0.983   -1.362   -1.669   -0.808   -1.019   -1.330   -1.155   -1.044   -1.688   -1.436   -1.334   -1.087   -1.302   -2.013   -1.420   -1.399   -1.336   -1.675   -2.177   -1.396   -1.515   -1.855   -1.529   -1.693   -1.675   -1.776   -1.651   -2.082   -1.949   -1.642   -1.835   -2.099   -1.690   -2.023   -2.666   -2.052   -2.085   -1.887   -2.255   -1.912   -2.091   -2.471   -2.193   -1.722   -1.924   -2.661   -1.896   -2.289   -2.291   -2.121   -2.231   -2.177   -2.274   -2.251   -2.368   -1.868   -1.351   -2.296   -2.076   -2.641   -2.121   -1.540   -2.004   -2.087   -2.038   -2.526   -2.288   -1.925   -1.874   -1.843   -2.024   -2.277   -1.926   -2.362   -2.565   -2.780   -1.905   -1.880   -2.443   -2.413   -2.155   -2.619   -2.904   -2.799   -2.674   -2.116   -2.410   -3.848   -4.188 
DATE 2017:116:12:31:15 obsn  16 az  37 el 52 freq_MHz  1423.0000 Tsys 165.000 Tant 288.957 vlsr  -12.21 glat -2.085 glon 111.575 azoff 0.00 eloff 0.00 source Cass 
Fstart 1421.997 fstop 1424.003 spacing 0.009375 bw    2.400 fbw    2.000 MHz nfreq 256 nsam 5242880 npoint 214 integ   182 sigma    0.252 bsw 18
Spectrum    167 integration periods
   2.529    2.292    2.276    2.293    2.232    2.410    2.604    2.371    2.128    1.909    2.016    1.624    2.139    1.874    1.846    1.509    1.408    1.732    1.670    1.583    1.563    1.657    1.660    1.627    1.392    2.182    1.412    1.951    1.419    1.166    1.430    1.573    1.127    1.014    1.271    0.800    1.362    1.297    1.911    1.303    0.795    1.139    0.772    1.014    1.009    1.152    1.060    0.873    1.138    0.666    0.706    1.015    0.934    0.388    1.001    1.011    0.319    0.721    0.374    0.652    0.479    0.785    1.362    0.482    1.034    0.940    0.655    0.990    0.592    0.730    0.860    1.016    0.942    0.371    0.465    0.660    0.909    0.295    0.399   -4.328    0.631    0.580    0.297    0.392    0.441   -0.061   -0.334    0.289    0.238    0.141   -0.246   -0.071    0.332   -0.242    0.349    0.067    0.154    0.468   -0.038    0.332   -0.001   -0.293   -0.041   -0.407   -0.314   -0.379    0.090   -0.271   -0.447   -0.971   -0.697   -0.129   -0.810   -0.727   -0.547   -0.101   -0.468   -0.722   -0.804   -1.471   -0.833   -0.418   -0.844   -0.828   -0.874   -0.656   -0.994   -1.283   -0.511   -0.605   -0.948   -0.881   -0.691   -1.200   -1.086   -1.007   -0.765   -0.905   -1.594   -1.113   -0.975   -0.970   -1.274   -1.752   -0.935   -1.266   -1.503   -1.138   -1.335   -1.259   -1.327   -1.165   -1.586   -1.533   -1.240   -1.450   -1.703   -1.331   -1.652   -2.216   -1.659   -1.743   -1.463   -1.757   -1.473   -1.751   -2.084   -1.761   -1.300   -1.530   -2.206   -1.560   -1.883   -1.783   -1.713   -1.765   -1.769   -1.870   -1.945   -1.911   -1.488   -1.064   -1.845   -1.648   -2.154   -1.672   -1.092   -1.635   -1.623   -1.639   -2.055   -1.788   -1.492   -1.487   -1.487   -1.523   -1.901   -1.516   -2.054   -2.212   -2.213   -1.522   -1.559   -1.956   -1.970   -1.687   -2.151   -2.415   -2.386   -2.307   -1.768   -2.014   -3.625   -3.936 
DATE 2017:116:12:31:38 obsn  17 az  29 el 52 freq_MHz  1423.0000 Tsys 165.000 Tant 287.652 vlsr  -12.21 glat -2.085 glon 111.575 azoff -8.16 eloff 0.00 source Cass 
Fstart 1421.997 fstop 1424.003 spacing 0.009375 bw    2.400 fbw    2.000 MHz nfreq 256 nsam 5242880 npoint 214 integ   193 sigma    0.245 bsw 19
Spectrum    177 integration periods
 453.594  452.268  450.206  450.868  451.312  450.715  450.167  449.931  450.700  451.162  451.332  450.454  451.209  451.140  451.119  451.502  451.758  450.973  453.298  452.115  451.403  451.056  451.732  451.621  451.817  451.712  451.547  453.500  452.579  451.664  451.422  451.282  451.079  451.070  451.300  450.909  451.437  450.699  450.978  451.829  452.338  451.652  452.128  452.222  452.750  452.413  453.182  453.133  453.208  452.509  452.309  452.591  452.577  452.350  452.537  452.359  452.493  452.256  452.061  451.717  451.361  452.463  451.497  451.740  451.574  451.586  451.918  451.025  451.315  452.012  453.208  451.368  451.837  451.379  451.341  451.275  452.207  451.043  454.275  468.678  452.088  451.119  451.828  451.500  452.310  452.220  452.711  452.799  452.563  452.172  452.655  452.890  452.728  452.935  452.095  452.570  452.348  452.418  451.961  453.319  453.187  453.124  453.481  453.742  453.779  453.138  454.167  453.499  453.304  453.608  453.846  454.210  453.931  454.238  455.558  453.991  455.020  455.631  454.858  455.736  455.907  455.941  456.402  457.278  456.035  456.292  456.815  456.507  457.599  456.817  456.910  457.402  457.017  456.368  456.154  455.625  456.552  455.655  457.039  456.082  455.093  455.590  455.576  455.978  456.174  455.651  456.210  456.310  455.538  455.458  455.426  455.256  455.944  455.860  455.990  456.270  456.170  456.103  456.176  456.691  456.558  456.742  456.371  455.730  456.889  457.559  457.102  456.502  456.352  457.609  457.279  456.768  456.683  457.141  456.465  456.578  457.652  457.026  457.303  457.274  457.508  457.237  457.823  456.780  457.533  458.121  458.028  457.400  457.755  458.312  457.725  457.687  457.859  457.235  457.473  457.463  456.492  457.195  455.858  457.314  457.191  456.857  457.480  457.685  457.081  457.806  458.404  457.999  459.002  457.921  458.287  457.395  463.863  462.821 
DATE 2017:116:12:31:52 obsn  18 az  29 el 52 freq_MHz  1423.0000 Tsys 165.000 Tant 295.692 vlsr  -12.21 glat -2.085 glon 111.575 azoff -8.16 eloff 0.00 source Cass 
Fstart 1421.997 fstop 1424.003 spacing 0.009375 bw    2.400 fbw    2.000 MHz nfreq 256 nsam 5242880 npoint 214 integ   204 sigma    0.238 bsw 19
Spectrum    187 integration periods
   2.577    2.278    2.217    2.149    2.121    2.308    2.617    2.112    1.923    1.938    1.887    1.594    2.007    1.953    1.813    1.493    1.501    1.751    1.641    1.598    1.496    1.490    1.534    1.478    1.210    1.790    1.296    1.800    1.310    1.080    1.265    1.311    0.965    0.800    1.193    0.708    1.073    0.954    1.736    1.057    0.717    0.909    0.715    0.858    0.799    1.026    0.810    0.798    1.013    0.535    0.609    0.732    0.791    0.257    0.997    0.715    0.039    0.622    0.253    0.441    0.207    0.524    1.174    0.405    0.715    0.899    0.513    0.794    0.643    0.585    0.722    0.724    0.773    0.272    0.250    0.395    0.621    0.043    0.206   -3.969    0.369    0.340    0.109    0.138    0.214   -0.381   -0.379    0.003    0.006   -0.022   -0.474   -0.187    0.022   -0.479    0.022   -0.251   -0.040    0.162   -0.296    0.020   -0.249   -0.515   -0.230   -0.670   -0.464   -0.700   -0.138   -0.617   -0.689   -1.026   -0.992   -0.360   -1.056   -1.084   -0.939   -0.516   -0.574   -0.794   -0.951   -1.644   -1.039   -0.715   -1.108   -1.045   -1.203   -0.900   -1.203   -1.479   -0.990   -1.016   -1.198   -1.177   -1.070   -1.567   -1.241   -1.177   -1.115   -1.273   -1.794   -1.364   -1.314   -1.262   -1.423   -1.893   -1.012   -1.476   -1.653   -1.472   -1.637   -1.466   -1.566   -1.464   -1.685   -1.697   -1.514   -1.563   -2.026   -1.591   -1.827   -2.395   -2.017   -1.961   -1.691   -2.074   -1.766   -2.029   -2.349   -2.061   -1.567   -1.781   -2.497   -1.938   -2.104   -2.082   -2.057   -2.034   -1.923   -2.102   -2.088   -2.034   -1.814   -1.370   -1.964   -2.084   -2.429   -1.946   -1.405   -1.893   -1.928   -1.882   -2.398   -2.004   -1.784   -1.867   -1.971   -1.785   -2.283   -1.813   -2.294   -2.483   -2.557   -1.833   -1.904   -2.286   -2.462   -1.990   -2.360   -2.729   -2.542   -2.521   -2.078   -2.428   -3.765   -4.138 
DATE 2017:116:12:32:16 obsn  19 az  37 el 52 freq_MHz  1423.0000 Tsys 165.000 Tant 288.222 vlsr  -12.21 glat -2.085 glon 111.575 azoff 0.00 eloff 0.00 source Cass 
Fstart 1421.997 fstop 1424.003 spacing 0.009375 bw    2.400 fbw    2.000 MHz nfreq 256 nsam 5242880 npoint 214 integ   215 sigma    0.232 bsw 20
Spectrum    197 integration periods
   2.450    2.235    2.194    2.022    2.082    2.119    2.537    2.139    1.902    1.914    1.735    1.494    1.898    1.825    1.834    1.438    1.429    1.813    1.445    1.481    1.499    1.372    1.404    1.407    1.210    1.709    1.289    1.674    1.292    0.995    1.173    1.187    0.911    0.867    1.060    0.654    0.979    0.973    1.611    1.088    0.591    0.890    0.624    0.729    0.710    0.986    0.795    0.756    0.875    0.502    0.579    0.541    0.703    0.198    0.981    0.663   -0.009    0.585    0.129    0.335    0.254    0.516    1.109    0.341    0.655    0.814    0.513    0.657    0.539    0.449    0.624    0.732    0.685    0.290    0.170    0.281    0.494   -0.066    0.098   -4.127    0.182    0.196    0.112    0.113    0.093   -0.512   -0.445    0.026   -0.069   -0.026   -0.458   -0.188   -0.049   -0.539    0.070   -0.302   -0.071    0.004   -0.363    0.049   -0.305   -0.596   -0.381   -0.795   -0.475   -0.821   -0.242   -0.654   -0.710   -1.099   -1.082   -0.405   -1.113   -1.157   -1.054   -0.614   -0.571   -0.841   -0.881   -1.653   -1.191   -0.848   -1.139   -1.118   -1.215   -1.076   -1.345   -1.574   -0.974   -1.118   -1.212   -1.309   -1.099   -1.638   -1.299   -1.169   -1.245   -1.281   -1.932   -1.432   -1.392   -1.236   -1.409   -1.912   -1.041   -1.447   -1.671   -1.605   -1.752   -1.551   -1.630   -1.558   -1.689   -1.720   -1.553   -1.717   -2.180   -1.658   -1.912   -2.509   -2.003   -2.022   -1.784   -2.106   -1.770   -2.133   -2.460   -2.157   -1.544   -1.918   -2.466   -1.943   -2.212   -2.117   -2.063   -2.134   -1.992   -2.100   -2.178   -2.057   -1.960   -1.534   -1.911   -2.138   -2.442   -1.964   -1.546   -1.887   -1.946   -1.940   -2.261   -2.025   -1.920   -1.832   -2.022   -1.896   -2.392   -1.907   -2.276   -2.540   -2.678   -1.837   -1.936   -2.350   -2.497   -2.026   -2.427   -2.703   -2.689   -2.592   -2.203   -2.507   -3.900   -4.196 
DATE 2017:116:12:33:01 obsn  20 az  29 el 52 freq_MHz  1423.0000 Tsys 165.000 Tant 299.752 vlsr  -12.21 glat -2.085 glon 111.575 azoff -8.19 eloff 0.00 source Cass 
Fstart 1421.997 fstop 1424.003 spacing 0.009375 bw    2.400 fbw    2.000 MHz nfreq 256 nsam 5242880 npoint 214 integ     5 sigma    1.458 bsw 3
Spectrum      5 integration periods
 458.959  455.993  455.997  454.711  456.821  456.457  459.203  456.905  453.489  459.461  453.909  449.779  452.463  457.649  458.371  457.334  454.429  454.796  456.269  454.427  458.417  457.858  460.038  459.087  459.752  456.066  459.000  453.984  462.323  454.715  457.115  454.565  458.022  455.608  454.962  454.893  456.082  458.204  456.241  461.559  460.563  460.418  457.010  461.295  462.736  454.427  457.167  462.816  459.513  460.475  457.999  461.302  458.849  458.112  457.557  459.042  460.282  459.136  459.644  456.532  462.783  458.512  455.418  457.614  456.058  455.984  458.201  458.736  455.005  459.369  458.567  461.688  456.846  460.510  458.021  460.433  457.859  457.407  458.823  466.461  455.742  461.313  461.226  460.266  460.841  458.207  460.927  466.137  460.159  458.802  456.433  461.351  460.300  460.124  461.310  463.413  461.448  461.970  459.284  460.285  464.276  462.002  460.139  459.960  461.390  462.746  462.053  462.368  459.422  463.098  463.138  466.358  466.119  463.666  464.141  462.630  463.560  468.262  465.895  466.410  466.240  466.825  463.996  468.588  463.516  468.432  467.455  466.826  469.921  469.198  463.575  470.143  466.764  461.745  467.406  466.012  473.024  465.591  466.626  463.608  466.105  466.287  470.494  467.861  462.265  461.640  466.816  467.726  466.140  461.540  461.141  466.184  466.622  465.166  465.954  464.617  467.248  465.540  463.379  470.319  468.417  465.320  466.976  467.950  460.117  466.837  468.842  467.541  470.519  465.892  471.604  465.912  466.021  467.144  465.948  469.897  466.883  468.184  470.880  466.297  463.718  468.028  462.991  466.473  464.525  471.566  468.055  469.874  469.217  470.466  471.927  469.992  471.569  469.670  465.818  473.137  470.186  469.127  465.648  468.235  470.225  468.177  468.023  470.249  474.591  471.180  467.936  470.834  470.136  469.814  470.724  470.522  473.725  469.253 
DATE 2017:116:12:33:25 obsn  21 az  37 el 52 freq_MHz  1423.0000 Tsys 165.000 Tant 294.968 vlsr  -12.21 glat -2.085 glon 111.575 azoff 0.00 eloff 0.00 source Cass 
Fstart 1421.997 fstop 1424.003 spacing 0.009375 bw    2.400 fbw    2.000 MHz nfreq 256 nsam 5242880 npoint 214 integ    16 sigma    0.842 bsw 4
Spectrum     15 integration periods
   2.128   -0.072   -0.365    1.310    0.739    0.302    0.000    1.159    1.538   -0.703    0.257    0.762    0.431   -1.405   -1.451   -0.867    1.640    1.641    0.223    0.417   -1.124   -0.819   -2.222   -0.767    0.301    0.735   -0.891    0.014   -1.381   -0.199   -0.333   -0.189   -1.115    0.959   -2.016   -0.686   -0.386   -0.973    0.634   -0.345   -0.030   -1.031   -0.877   -0.453   -1.281    0.022   -1.627   -0.173   -1.195   -0.979    0.194   -1.179   -2.455   -1.850   -1.409   -2.431   -1.137   -1.251   -3.195   -2.442   -1.721   -1.436   -0.078   -1.446    0.213   -0.093    0.062   -2.285   -1.851   -2.119   -1.651   -0.830    0.965   -0.926   -1.247   -3.197   -1.820   -1.417   -3.875   -2.236   -0.785    0.166   -3.679   -1.002   -2.821   -3.792   -3.362   -3.129   -0.657   -0.323   -3.080   -3.382   -1.499   -1.095   -3.541   -2.363   -2.902   -1.306   -1.820   -3.367   -2.758   -3.780   -0.842   -2.781   -1.973   -1.872   -5.689   -4.360   -2.374   -3.969   -4.553   -3.900   -4.115   -1.884   -3.123   -4.267   -1.171   -1.294   -3.285   -5.156   -2.651   -2.700   -2.823   -2.943   -1.919   -4.604   -3.382   -3.080   -3.226   -4.057   -1.895   -5.823   -5.289   -2.343   -7.675   -4.055   -3.599   -4.209   -4.268   -2.005   -3.947   -3.054   -4.995   -4.295   -3.925   -3.847   -3.711   -4.667   -5.880   -4.433   -4.679   -3.456   -2.955   -3.631   -3.043   -4.821   -2.774   -3.939   -2.225   -4.291   -5.397   -3.074   -3.738   -3.579   -2.933   -5.616   -3.385   -3.991   -3.929   -5.100   -5.027   -4.060   -3.400   -4.212   -3.307   -4.380   -2.639   -4.570   -5.344   -4.550   -4.227   -4.021   -5.399   -5.533   -2.339   -4.810   -5.434   -3.038   -4.289   -4.604   -5.018   -4.481   -4.239   -4.914   -4.469   -5.043   -3.987   -5.686   -4.563   -4.894   -5.585   -4.245   -5.230   -7.854   -4.761   -4.911   -5.797   -5.765   -5.836   -3.583   -5.371   -5.338   -4.780   -4.713 
DATE 2017:116:12:34:00 obsn  22 az  37 el 53 freq_MHz  1423.0000 Tsys 165.000 Tant 283.318 vlsr  -12.21 glat -2.085 glon 111.575 azoff 0.00 eloff 0.00 source Cass 
Fstart 1421.997 fstop 1424.003 spacing 0.009375 bw    2.400 fbw    2.000 MHz nfreq 256 nsam 5242880 npoint 214 integ    27 sigma    0.326 bsw 0
Spectrum     25 integration periods
 460.240  458.219  453.753  453.862  455.435  456.507  456.916  455.773  453.935  457.111  455.701  454.389  454.778  456.933  457.132  457.975  455.759  457.035  457.637  456.503  455.715  457.325  457.090  457.186  456.300  456.403  456.858  456.642  457.883  458.109  456.228  457.375  457.207  456.543  455.926  456.035  455.763  455.684  456.301  456.017  458.542  459.640  459.138  458.741  459.282  458.138  458.460  460.125  459.054  459.765  458.545  459.003  459.209  457.956  458.030  456.513  459.019  456.740  457.282  457.172  457.213  455.898  457.398  456.328  459.104  456.523  456.363  458.365  455.896  455.932  456.395  458.582  456.578  457.201  457.842  458.111  458.481  455.872  456.006  465.191  457.467  456.589  459.092  457.835  457.362  458.150  458.494  460.144  458.150  459.067  457.707  458.629  458.036  458.286  456.705  458.766  458.024  457.469  458.391  458.517  460.596  458.991  458.795  458.316  460.288  458.597  459.589  459.313  460.188  458.916  460.311  460.077  460.188  462.117  462.057  461.149  459.727  463.281  461.860  461.770  462.255  462.338  462.285  462.924  463.779  463.329  463.823  464.167  463.944  464.349  463.048  464.616  463.182  462.054  462.484  461.566  464.971  461.795  462.068  461.402  461.823  461.848  462.522  461.297  460.627  461.172  463.080  462.147  463.490  462.064  461.132  462.997  462.957  460.788  459.528  461.689  462.538  461.681  461.027  461.717  462.313  461.356  461.501  460.887  461.023  462.286  463.914  462.056  464.478  463.179  464.076  464.067  462.566  462.560  462.223  465.045  463.882  464.317  464.178  461.900  462.863  461.131  464.192  465.168  464.380  465.870  465.058  464.810  465.356  463.161  463.885  462.247  465.118  465.120  463.630  464.890  463.129  462.539  463.456  463.769  462.617  463.250  463.952  465.399  466.422  464.789  463.834  464.301  464.694  465.672  464.432  464.777  467.107  465.617 
* entered freq 1412.000000 nfreq 256
* entered freq 1412.500000 nfreq 256
* entered freq 1415.000000 nfreq 256
DATE 2017:116:12:34:27 obsn  23 az  37 el 53 freq_MHz  1415.0000 Tsys 165.000 Tant 460.869 vlsr  -12.21 glat -2.085 glon 111.575 azoff 0.00 eloff 0.00 source Cass 
Fstart 1413.997 fstop 1416.003 spacing 0.009375 bw    2.400 fbw    2.000 MHz nfreq 256 nsam 5242880 npoint 214 integ     2 sigma    1.153 bsw 0
Spectrum      2 integration periods
 276.555  290.956  305.337  312.490  322.816  334.801  348.974  356.910  367.971  381.200  390.284  407.286  408.585  419.114  434.973  438.776  444.505  451.499  460.325  465.668  467.793  471.904  472.192  487.138  489.760  491.144  503.167  496.309  500.267  500.217  498.715  500.008  502.857  506.325  499.369  503.579  495.954  503.235  501.893  493.367  493.935  492.001  495.956  487.571  480.024  480.663  486.545  478.097  479.678  470.361  474.089  469.245  464.660  467.066  462.640  463.336  461.301  459.348  463.137  454.602  459.298  456.588  455.912  453.971  460.331  456.807  458.598  453.219  459.141  462.194  460.915  458.042  462.908  465.708  468.085  470.130  470.385  474.295  481.150  471.509  479.460  483.769  485.663  483.122  488.747  491.956  498.650  493.083  498.699  499.383  505.907  504.379  507.624  508.031  509.398  510.576  514.608  517.213  521.150  520.895  521.030  521.821  529.937  521.666  527.644  522.976  528.080  546.938  526.152  526.283  514.588  520.954  517.581  522.050  527.655  515.339  511.927  518.536  512.820  516.041  520.871  507.168  503.993  507.037  501.166  490.551  486.967  487.961  487.001  481.344  476.810  474.871  470.515  472.294  472.486  467.083  470.241  467.987  457.940  454.857  459.336  455.745  454.131  454.835  448.720  452.200  450.571  444.736  446.588  446.846  438.634  448.751  441.327  435.797  443.992  444.849  446.691  445.920  445.836  444.041  448.647  451.019  446.199  447.789  455.201  454.054  454.296  458.748  464.307  461.528  463.318  465.830  461.531  471.719  467.764  469.834  475.395  475.143  476.147  477.494  472.887  478.591  474.385  471.655  474.989  476.100  466.386  465.606  459.602  462.156  459.429  453.453  451.186  446.251  444.400  437.276  429.420  423.612  410.399  411.522  395.585  394.362  381.637  372.377  361.695  352.260  346.441  333.954  329.280  312.825  304.064  290.553  281.634  271.965 
* calibration started
DATE 2017:116:12:34:41 obsn  24 az  37 el 53 freq_MHz  1415.0000 Tsys 165.000 Tant 463.258 vlsr  -12.21 glat -2.085 glon 111.575 azoff 0.00 eloff 0.00 source Cass 
Fstart 1413.997 fstop 1416.003 spacing 0.009375 bw    2.400 fbw    2.000 MHz nfreq 256 nsam 5242880 npoint 214 integ    10 sigma    0.544 bsw 0
Spectrum      9 integration periods
 280.079  293.615  303.318  314.594  325.557  338.778  348.953  360.426  372.658  383.076  393.889  399.467  411.910  420.869  431.135  437.639  448.358  451.660  458.306  466.117  471.643  478.429  480.426  484.446  490.854  490.868  496.223  500.273  504.115  502.996  504.459  503.774  506.174  504.733  502.752  503.468  500.311  501.316  499.303  497.291  495.378  492.154  489.611  488.215  486.732  489.855  481.935  480.882  478.402  479.793  476.364  470.532  469.811  468.005  466.557  467.799  464.414  461.252  463.210  461.949  461.296  458.753  457.459  459.687  459.842  459.677  462.378  461.845  459.593  459.526  460.267  463.564  465.576  467.283  468.845  472.885  473.407  474.089  474.005  477.714  479.267  483.962  486.648  489.265  491.977  493.448  493.632  500.376  498.776  502.880  504.241  507.463  511.077  512.114  516.069  518.259  519.335  521.383  522.359  525.117  523.151  529.703  525.113  528.020  529.942  527.637  529.938  551.877  528.064  530.134  526.283  529.247  524.310  526.211  524.885  520.300  521.165  515.875  517.115  513.982  509.449  507.017  505.973  502.472  499.583  496.502  495.001  491.769  491.304  485.660  484.022  482.551  477.329  474.793  475.855  467.626  466.310  466.162  464.626  460.698  458.467  456.852  455.831  452.514  452.911  451.845  445.740  449.379  449.266  447.958  445.978  444.993  446.463  444.411  448.010  449.259  447.418  449.254  449.347  453.317  451.820  447.965  454.544  454.419  456.534  456.376  457.535  461.400  461.356  467.200  465.979  467.325  469.263  473.552  471.772  472.122  475.525  476.717  475.141  477.055  477.964  478.136  476.682  481.202  474.283  475.195  472.510  469.442  466.234  463.775  459.234  456.539  449.957  446.812  439.439  438.649  429.226  423.628  416.494  410.358  399.432  391.633  382.899  372.868  365.531  356.951  347.635  333.196  326.809  313.457  303.427  291.018  280.988  272.111 
* entered freq 1416.000000 nfreq 256
DATE 2017:116:12:34:59 obsn  25 az  37 el 53 freq_MHz  1416.0000 Tsys 165.000 Tant 462.000 vlsr  -12.21 glat -2.085 glon 111.575 azoff 0.00 eloff 0.00 source Cass 
Fstart 1414.997 fstop 1417.003 spacing 0.009375 bw    2.400 fbw    2.000 MHz nfreq 256 nsam 5242880 npoint 214 integ     1 sigma    1.631 bsw 0
Spectrum      1 integration periods
 288.723  312.889  311.014  329.247  332.912  350.220  364.370  371.810  382.726  399.971  397.289  412.681  427.547  436.152  439.191  454.993  452.536  458.938  472.903  477.167  484.549  494.515  498.078  500.871  497.708  506.985  514.275  514.591  514.140  518.873  517.350  524.642  523.051  517.541  516.952  513.354  513.577  519.022  510.242  507.733  506.438  512.347  499.131  499.957  505.797  496.198  494.180  506.995  496.083  485.563  490.845  485.631  482.013  478.027  475.637  474.739  471.302  475.853  467.479  468.495  475.344  473.147  470.867  467.636  467.548  466.298  468.778  471.295  478.644  469.555  469.953  475.924  473.971  481.791  474.205  480.805  478.112  484.427  487.249  486.379  480.333  498.279  494.535  496.083  490.501  507.162  494.310  512.316  510.348  516.025  512.297  515.875  518.071  517.978  522.953  523.851  522.325  528.957  532.749  521.991  536.367  544.336  534.627  523.264  535.561  529.500  528.450  571.379  522.240  521.001  532.919  538.176  522.311  517.303  515.817  517.931  514.857  514.546  521.261  512.012  513.478  505.772  513.710  504.033  504.061  494.556  479.991  482.841  493.029  533.624  479.887  480.455  465.576  469.897  473.448  464.022  462.168  466.796  450.845  443.162  448.753  439.061  439.662  441.194  442.830  443.188  436.804  437.767  439.728  437.233  441.754  431.250  429.811  439.528  428.415  428.257  436.652  431.181  432.827  430.512  432.630  433.213  437.811  434.431  440.490  443.880  443.874  441.334  440.660  441.315  444.482  447.340  446.621  454.348  445.351  455.141  457.703  444.427  450.253  451.535  453.785  454.231  452.345  453.518  451.823  448.026  440.039  447.402  451.542  437.296  433.714  430.005  419.437  424.827  414.794  421.264  408.604  396.574  395.235  383.349  375.168  368.682  362.952  352.068  341.300  338.274  322.158  311.610  299.991  289.916  281.769  277.214  262.447  251.472 
* entered freq 1417.000000 nfreq 256
* entered freq 1417.500000 nfreq 256
* calibration started
DATE 2017:116:12:35:25 obsn  26 az  37 el 53 freq_MHz  1417.5000 Tsys 165.000 Tant 463.787 vlsr  -12.21 glat -2.085 glon 111.575 azoff 0.00 eloff 0.00 source Cass 
Fstart 1416.497 fstop 1418.503 spacing 0.009375 bw    2.400 fbw    2.000 MHz nfreq 256 nsam 5242880 npoint 214 integ     1 sigma    1.631 bsw 0
Spectrum      1 integration periods
 308.147  318.907  337.243  342.491  351.205  372.566  382.867  397.018  411.617  425.925  431.099  440.556  448.928  457.026  474.243  478.093  485.918  491.804  500.176  500.840  508.565  509.413  521.054  534.978  525.500  529.266  540.751  537.463  535.680  532.998  543.485  539.693  539.945  535.875  530.002  535.998  523.494  531.908  530.563  529.701  532.420  528.621  529.040  518.777  517.082  522.912  519.501  502.622  507.950  494.995  498.133  496.213  495.393  493.203  489.885  495.170  484.416  481.402  479.370  483.295  490.137  476.387  471.342  482.026  482.828  467.440  475.551  473.056  479.098  473.120  477.686  476.566  484.051  473.217  478.744  480.338  487.555  488.351  489.787  491.364  493.919  491.706  492.800  502.325  497.747  508.146  503.296  503.750  505.170  504.842  507.314  508.334  513.682  499.949  510.632  513.531  513.060  526.968  522.638  529.112  525.043  521.363  523.312  530.519  520.843  531.528  528.231  524.595  516.311  513.792  517.130  518.431  512.163  509.384  512.878  502.184  508.829  516.877  492.819  504.369  498.040  502.570  486.679  488.015  492.574  482.671  475.210  475.306  480.220  479.731  469.201  458.120  453.813  452.873  453.895  451.009  452.826  450.289  446.407  446.145  434.867  435.612  437.485  436.130  430.921  432.285  432.382  424.077  423.399  426.961  430.803  431.785  419.046  424.357  426.602  425.162  431.231  427.088  423.645  427.757  425.899  427.385  423.960  431.756  436.906  434.906  434.009  437.285  439.151  440.652  435.087  445.837  444.316  447.132  442.446  443.280  439.656  453.420  447.925  446.405  447.960  446.100  438.361  453.914  446.748  446.425  445.685  449.048  428.841  443.423  433.311  424.103  434.794  419.565  414.892  416.929  401.251  392.716  394.309  384.532  373.411  376.756  354.969  351.144  339.811  332.585  325.417  313.863  303.184  295.031  287.965  275.470  262.288  253.275 
DATE 2017:116:12:35:38 obsn  27 az  37 el 53 freq_MHz  1417.5000 Tsys 165.000 Tant 297.684 vlsr  -12.21 glat -2.085 glon 111.575 azoff 0.00 eloff 0.00 source Cass 
Fstart 1416.497 fstop 1418.503 spacing 0.009375 bw    2.400 fbw    2.000 MHz nfreq 256 nsam 5242880 npoint 214 integ    12 sigma    0.492 bsw 0
Spectrum     11 integration periods
 459.905  462.080  461.097  461.275  460.728  462.552  463.316  461.768  463.280  463.866  463.853  461.188  461.267  462.451  461.073  461.016  460.946  459.380  463.239  463.372  462.212  460.408  462.573  461.560  461.410  463.389  465.531  463.772  462.162  461.460  464.017  462.289  462.680  463.233  460.565  459.035  458.709  462.443  461.847  462.614  461.353  462.733  463.998  461.717  462.327  460.602  460.960  461.719  460.847  463.296  463.352  461.692  460.349  463.122  462.800  464.768  463.035  459.080  461.466  461.937  462.924  461.591  460.263  459.360  462.342  460.615  462.802  462.780  464.430  462.938  460.339  463.305  463.409  463.980  462.442  462.446  463.355  462.304  463.281  462.828  461.843  460.174  461.387  460.487  462.096  461.855  461.174  462.777  460.753  459.487  461.267  462.310  459.644  460.169  462.845  461.245  460.445  464.375  461.441  463.318  461.753  459.921  461.120  464.656  462.897  463.593  465.198  461.616  461.925  462.842  463.101  462.098  460.352  460.939  460.437  461.138  461.375  460.384  462.354  461.919  462.696  461.159  460.835  462.289  463.569  461.001  462.446  461.342  461.127  462.599  463.065  462.872  461.058  460.026  463.443  462.053  461.556  463.112  461.028  462.024  463.015  462.170  462.488  460.925  461.981  463.087  461.911  459.050  461.906  460.814  464.030  463.125  460.510  460.236  461.061  463.150  461.566  459.956  463.250  461.631  464.581  463.212  461.119  461.394  463.331  460.580  462.104  463.579  462.351  461.595  461.968  464.345  463.428  462.683  460.357  460.385  460.598  462.061  463.293  462.502  461.281  461.319  459.325  463.125  462.416  462.309  460.262  461.743  461.242  463.101  459.973  462.853  463.834  460.402  460.115  465.820  460.534  460.788  463.033  461.830  460.864  461.847  463.342  460.101  461.036  461.673  461.558  463.151  462.770  462.703  461.202  461.633  460.337  461.230 
