DATE 2017:080:18:10:28 obsn 103 az 282 el 51 freq_MHz  1413.0000 Tsys 175.088 Tant 15.100 vlsr  -26.99 glat  0.880 glon 76.965 azoff -7.99 eloff 0.00 source CygnusX 
Fstart 1411.997 fstop 1414.003 spacing 0.009375 bw    2.400 fbw    2.000 MHz nfreq 256 nsam 5242880 npoint 214 integ     4 sigma    1.730 bsw 3
Spectrum      4 integration periods
 188.991  187.449  186.060  186.467  186.990  186.511  184.524  186.631  186.172  184.657  186.012  185.019  185.077  186.926  186.164  186.251  185.223  186.004  186.208  187.241  186.833  187.411  186.563  186.704  187.221  186.012  187.075  187.844  187.474  188.425  185.951  186.413  188.318  187.503  188.301  189.145  187.632  187.984  187.448  187.355  188.358  188.189  189.525  188.844  188.744  189.151  187.028  188.011  188.511  190.643  189.660  188.893  187.391  188.865  190.073  187.501  187.698  187.826  189.380  187.225  188.359  188.125  189.433  187.221  190.949  187.909  187.945  187.573  187.662  187.982  190.243  187.398  187.598  189.129  188.836  189.599  188.979  188.172  187.247  188.579  186.424  188.366  189.366  188.324  189.144  191.815  189.233  188.830  190.539  189.658  192.014  189.169  190.559  189.759  191.553  189.133  190.055  189.605  189.982  190.091  190.077  190.135  189.301  189.754  190.907  190.017  189.915  188.915  189.767  191.417  192.035  190.336  191.264  190.217  188.845  192.018  189.044  191.550  190.539  191.527  190.098  190.054  190.814  190.801  190.400  190.199  189.302  191.556  192.720  191.703  190.807  191.637  191.708  191.700  190.937  190.107  192.461  189.852  191.663  190.835  191.750  189.820  190.380  191.127  190.492  192.313  189.294  191.508  190.580  191.394  191.849  190.029  192.014  192.551  190.277  192.222  190.821  190.635  191.803  189.818  191.474  191.412  190.142  190.568  189.598  190.022  191.169  191.328  192.814  192.339  190.955  189.893  190.005  191.373  191.505  190.232  190.170  191.268  191.373  190.471  188.959  190.524  191.253  190.990  192.148  190.448  192.863  190.091  190.797  188.605  192.439  191.681  192.435  191.659  191.349  190.514  190.203  191.482  190.581  190.688  192.587  191.052  189.137  190.472  191.792  192.238  192.111  190.606  191.542  191.266  190.982  191.328  191.392  191.380 
DATE 2017:080:18:10:52 obsn 104 az 290 el 51 freq_MHz  1413.0000 Tsys 175.088 Tant 23.418 vlsr  -26.99 glat  0.880 glon 76.965 azoff 0.00 eloff 0.00 source CygnusX 
Fstart 1411.997 fstop 1414.003 spacing 0.009375 bw    2.400 fbw    2.000 MHz nfreq 256 nsam 5242880 npoint 214 integ    15 sigma    0.925 bsw 4
Spectrum     14 integration periods
  14.470   12.009   12.126   14.251   11.789   13.911   15.036   12.941   12.967   15.107   13.434   15.676   13.866   11.552   12.618   11.434   13.103   12.858   13.694   12.684   13.204   13.318   13.484   10.761   13.723   14.544   13.105   14.257   13.117   13.297   15.482   14.043   13.198   10.004   12.259   14.100   11.835   14.182   12.103   13.350   13.323   12.730   12.212   14.373   13.087   12.106   14.211   14.427   12.548   10.777   13.684   12.381   13.237   12.398   11.176   15.108   13.162   12.842   11.587   13.966   14.898   12.861   13.327   15.379   14.763   14.205   14.809   15.628   13.849   15.311   14.295   15.107   11.996   13.727   13.706   12.380   12.560   12.618   15.087   12.641   12.531   14.107   13.699   13.069   13.009   12.815   11.131   12.722   11.887   11.791   12.267   12.695   14.540   12.298   10.532   13.417   13.759   13.297   12.868   12.434   13.437   12.053   12.384   12.893   11.838   12.525   12.595   14.477   13.731   11.803   11.601   14.538   12.532   12.408   13.410   11.626   12.758    9.597   11.640   11.733   11.277   10.543   11.896   11.934   13.118    9.016   13.054   14.222   11.803   11.545   12.433   13.485   11.286   11.603   12.953   14.737   12.813   12.362   11.747   12.183   11.418   12.188   13.202   14.617   12.551   12.601   12.714   12.620   12.650   10.839   11.484   12.786   12.331   10.264   11.961   13.393   12.443   13.389   12.180   12.936   10.112   10.174   13.008   11.081   12.517   13.681   13.131   12.667   10.438   12.645    9.270   12.831   11.370   12.468   13.581   12.569   11.661   12.992   11.060   13.146   12.724   11.615   14.226   11.628    9.815   14.126    8.788   12.747   10.544   12.604   11.728   11.814   10.596   11.366   10.395   11.626   12.624    9.475   10.255   10.554   11.837   12.237   11.774   12.182    9.741   10.699    9.210   12.868   10.732   10.178   11.477   10.003   11.491    9.880 
DATE 2017:080:18:11:16 obsn 105 az 298 el 51 freq_MHz  1413.0000 Tsys 175.088 Tant 16.426 vlsr  -26.99 glat  0.880 glon 76.965 azoff 7.96 eloff 0.00 source CygnusX 
Fstart 1411.997 fstop 1414.003 spacing 0.009375 bw    2.400 fbw    2.000 MHz nfreq 256 nsam 5242880 npoint 214 integ    26 sigma    0.706 bsw 5
Spectrum     24 integration periods
  14.014   12.542   11.763   13.172   12.882   12.476   12.622   13.805   13.526   14.340   12.264   13.563   12.696   11.710   13.202   12.408   12.622   13.070   12.605   13.120   12.616   12.322   13.190   12.532   13.057   13.871   13.279   13.457   12.994   12.959   13.839   13.085   12.239   10.745   12.944   12.638   11.669   11.988   11.963   13.044   11.822   12.536   11.710   12.248   12.774   12.127   13.062   13.930   12.628   10.385   12.041   11.999   13.596   12.188   11.174   14.346   12.495   12.723   10.120   13.145   13.718   12.723   12.241   12.424   11.889   12.041   13.302   14.208   12.817   12.410   12.450   13.375   12.269   12.903   13.310   11.775   12.262   12.436   13.147   12.166   12.355   13.283   12.474   13.377   12.652   12.976   11.991   12.060   10.512   12.182   12.121   11.856   12.719   12.362   10.661   11.814   12.524   12.229   11.491   11.550   13.220   11.004   12.260   12.417   12.788   12.759   13.001   13.556   13.350   11.882   10.843   11.968   12.931   11.679   12.189   10.976   12.547   10.485   12.422   11.348   11.363   10.710   11.495   11.040   12.028   10.650   12.122   12.420   10.669   11.162   11.862   11.305   11.979   11.642   12.790   12.748   12.421   12.050   10.740   11.517   11.110   11.884   12.345   11.788   12.535   11.925   12.869   11.575   12.288   11.134   10.812   11.215   11.464   10.233   12.245   12.457   11.012   11.628   11.934   13.489    9.646   10.125   11.037   10.679   11.859   11.693   11.945   11.379    9.287   11.796    9.613   11.265   10.477   10.850   11.300   11.242   11.785   10.881    9.934   12.746   12.019   11.113   12.364   10.856   10.088   11.937   10.134   11.520   10.245   11.730   11.384   10.921    9.551   10.924   10.392   10.880   11.591    9.901    9.444   11.380   11.273   11.147   11.113   11.423    9.242   10.996    9.061   11.371   10.084   11.145   10.577    9.300   10.735    9.361 
DATE 2017:080:18:11:39 obsn 106 az 290 el 51 freq_MHz  1413.0000 Tsys 175.088 Tant 25.509 vlsr  -26.99 glat  0.880 glon 76.965 azoff 0.00 eloff 0.00 source CygnusX 
Fstart 1411.997 fstop 1414.003 spacing 0.009375 bw    2.400 fbw    2.000 MHz nfreq 256 nsam 5242880 npoint 214 integ    37 sigma    0.593 bsw 6
Spectrum     34 integration periods
  12.398   11.053   10.406   10.896   10.704   10.432   10.883   12.018   11.367   11.578   10.714   11.292   10.945   10.375   11.075   10.515   10.776   11.225   10.321   10.981   10.632   10.409   11.418   10.517   11.353   11.555   10.614   11.361   11.276   11.484   11.852   10.909   10.724   10.155   11.221   11.347   10.084   10.849   10.794   11.169   10.859   10.940    9.864   11.053   11.359   11.193   10.870   11.861   10.525    9.066   10.683   10.407   10.984   10.245   10.046   11.972   10.707   11.140    9.323   11.142   11.728   11.100   10.754   10.478   10.543    9.868   10.695   12.046   11.253   10.593   10.306   10.934   10.399   11.188   10.765   10.162   10.338   10.080   10.767   10.675   10.765   11.237   11.229   11.039   10.921   11.065   10.547   10.167    9.289   10.693   10.740    9.663   11.258   10.299    8.752    9.842   10.245   10.559    9.678    9.806   10.642    9.345   10.606   10.262   11.341   11.035   10.591   10.983   11.020    9.744    9.282    9.488   10.888   10.209   10.062    9.631   10.101    9.393   10.579   10.167    9.499    9.261    9.434    8.973   10.091    8.396   10.304   10.314    8.911    9.972   10.038    9.693    9.800   10.157   10.491    9.716   10.505    9.981    8.472    9.193    9.678    9.696    9.879   10.165    9.902    9.494   10.366    9.258   10.334    9.051    9.120    9.207    9.225    8.675   10.005   10.347    9.411    9.681   10.006   10.446    7.809    8.330    8.890    8.505    9.912    9.861    8.910    9.214    8.023   10.236    7.795    9.246    8.874    8.634    8.636    9.113    9.595    9.110    7.764   10.478    9.531    8.897    9.545    8.932    8.551    9.224    7.779    9.598    8.128    9.800    9.303    8.531    8.140    8.683    8.143    8.076    9.113    7.723    7.234    8.717    8.993    9.006    9.312    9.053    7.660    8.284    7.021    9.175    8.287    8.344    8.290    7.806    8.752    8.009 
DATE 2017:080:18:12:08 obsn 107 az 282 el 51 freq_MHz  1413.0000 Tsys 175.088 Tant 17.035 vlsr  -26.99 glat  0.880 glon 76.965 azoff -7.93 eloff 0.00 source CygnusX 
Fstart 1411.997 fstop 1414.003 spacing 0.009375 bw    2.400 fbw    2.000 MHz nfreq 256 nsam 5242880 npoint 214 integ    48 sigma    0.522 bsw 7
Spectrum     44 integration periods
  12.098   11.556   10.699   11.121   11.300   11.066   11.607   12.151   11.806   11.557   11.352   11.854   11.747   11.022   10.674   10.987   10.804   11.002   10.578   11.373   11.083   11.113   11.553   11.374   11.599   11.858   11.021   11.669   10.853   11.933   11.845   11.103   11.094   10.654   11.473   11.674   10.956   11.274   11.476   12.401   11.199   11.191   10.271   10.978   11.884   11.021   11.752   11.520   10.839    9.666   10.609   11.143   11.165   10.531   10.233   11.614   11.154   11.314   10.160   11.550   11.739   11.557   11.248   10.963   10.700   10.370   10.897   12.224   11.394   10.837   10.611   11.024   10.817   10.774   10.797   10.456   10.140   10.641   11.100   10.375   11.092   11.479   10.860   10.966   10.915   10.849   11.139   10.938    9.914   10.921   10.496   10.722   11.029   11.046    9.349   10.157   10.622   10.959   10.339   10.422   10.854    9.620   10.625   10.390   10.852   11.200   11.205   11.277   10.879   10.127    9.999    9.873   10.606   10.484   10.340   10.061   10.372   10.144   10.783   10.179   10.292    9.837    9.865    9.615    9.912    9.212   10.344   10.703    9.335   10.887   10.245   10.717    9.725   10.234   10.140   10.365   10.461   10.373    9.255    9.768   10.126   10.101   10.420    9.988   10.073    9.913   10.704    9.130   10.257    9.404    9.619    9.839    9.456    9.017   10.124   10.301    9.670   10.006    9.926   10.615    8.315    8.548    9.138    9.032    9.718    9.817    9.708    9.918    8.397   10.211    8.643    9.296    8.827    8.867    9.207    9.232    9.973    9.774    8.394   10.266    9.608    9.373    9.368    9.605    8.792    9.633    8.146    9.336    8.593    9.570    9.429    8.470    8.520    9.046    8.600    8.229    9.783    8.528    8.302    8.890    9.078    8.948    9.216    9.731    8.400    8.775    7.295    9.031    8.322    8.868    9.171    8.606    8.165    8.186 
DATE 2017:080:18:12:38 obsn 108 az 290 el 51 freq_MHz  1413.0000 Tsys 175.088 Tant 24.908 vlsr  -26.99 glat  0.880 glon 76.965 azoff 0.00 eloff 0.00 source CygnusX 
Fstart 1411.997 fstop 1414.003 spacing 0.009375 bw    2.400 fbw    2.000 MHz nfreq 256 nsam 5242880 npoint 214 integ    59 sigma    0.471 bsw 8
Spectrum     54 integration periods
  11.418   11.249   10.240   10.720   10.709   10.454   11.393   11.158   11.120   10.755   10.796   11.285   11.199   10.468   10.275   10.285   10.174   10.501   10.111   10.762   10.600   10.712   10.524   10.792   11.246   11.408   10.715   11.124   10.400   11.516   11.179   10.693   10.418   10.365   10.843   11.279   10.540   10.786   11.025   11.359   10.573   10.535   10.027   10.458   11.385   10.261   11.432   11.042   10.309    9.070   10.089   10.381   10.534    9.874    9.669   10.915   10.734   10.725    9.965   11.030   10.849   10.595   10.399    9.966   10.238    9.503   10.276   11.763   10.813   10.215    9.964   10.518   10.620   10.007   10.098    9.837    9.707   10.132   10.769    9.955   10.419   10.539   10.241   10.313   10.211   10.172   10.225   10.478    9.878   10.224    9.970   10.164   10.167   10.641    9.209    9.602    9.936   10.439    9.669    9.827   10.204    9.078   10.145    9.589   10.052   10.343   10.808   10.259    9.912    9.566    9.716    9.406    9.879   10.252    9.696    9.503    9.495    9.841   10.192    9.772    9.844    9.425    9.435    8.935    9.586    8.613    9.373   10.441    8.954   10.046    9.667    9.768    9.082    9.927    9.629    9.857   10.114    9.544    8.625    9.607    9.522    9.748    9.738    9.615    9.640    9.534   10.163    8.702    9.491    8.814    9.092    9.619    9.265    8.544    9.586    9.658    8.967    9.543    9.483   10.124    8.231    8.237    8.580    8.887    9.467    8.973    9.636    9.723    7.943   10.039    8.079    8.851    8.484    8.598    8.845    8.676    9.369    9.569    7.978    9.754    9.357    8.643    9.395    8.692    8.350    9.289    7.932    8.755    8.158    9.032    9.201    8.368    8.597    8.510    8.256    7.792    9.497    8.444    7.945    8.259    8.258    8.574    8.928    8.937    8.030    8.527    6.884    8.628    7.907    8.514    8.791    8.218    7.583    8.079 
DATE 2017:080:18:13:02 obsn 109 az 298 el 51 freq_MHz  1413.0000 Tsys 175.088 Tant 34.356 vlsr  -26.99 glat  0.880 glon 76.965 azoff 7.90 eloff 0.00 source CygnusX 
Fstart 1411.997 fstop 1414.003 spacing 0.009375 bw    2.400 fbw    2.000 MHz nfreq 256 nsam 5242880 npoint 214 integ    70 sigma    0.433 bsw 9
Spectrum     64 integration periods
 196.341  194.298  193.237  193.742  193.628  193.449  193.559  194.344  193.616  193.761  193.553  193.777  193.873  193.713  194.116  193.825  194.013  193.713  193.740  193.952  194.369  193.810  193.561  194.534  194.347  194.285  194.200  194.760  194.657  195.197  194.635  194.677  194.672  194.793  195.148  194.913  194.714  194.889  195.047  195.059  194.948  195.439  195.328  195.402  195.508  195.514  195.815  195.149  195.901  195.452  196.069  195.755  195.881  195.991  195.693  195.830  196.117  195.649  195.848  195.600  195.540  195.713  196.268  195.617  196.471  196.062  196.094  196.877  195.957  195.898  196.150  196.649  195.571  196.716  196.109  195.948  196.214  196.169  196.186  196.430  195.545  196.668  196.790  196.599  196.965  197.070  196.999  196.483  197.555  196.825  197.425  197.075  197.477  197.386  196.870  196.987  196.873  196.883  196.891  196.825  197.310  197.501  197.021  197.264  197.278  197.686  197.431  197.680  197.364  197.636  197.851  197.501  197.201  197.295  197.659  197.581  197.693  198.099  197.476  197.354  197.832  197.475  197.625  197.860  197.949  197.862  198.311  198.709  198.575  198.362  197.911  198.839  197.367  198.235  197.922  197.815  198.367  197.723  197.797  198.022  197.472  197.548  197.716  198.084  198.365  198.377  198.024  198.096  198.788  198.038  198.008  197.994  198.264  198.374  197.857  198.263  198.152  197.965  197.671  198.094  197.985  197.456  197.753  197.844  197.711  198.481  198.136  197.686  198.141  198.870  197.783  198.205  197.715  197.759  197.980  197.202  197.768  198.223  197.479  197.750  197.204  197.493  198.127  197.660  197.740  197.235  197.947  197.475  197.380  197.342  197.363  197.417  197.097  197.526  197.471  197.402  197.848  197.974  197.772  197.635  197.979  197.947  198.122  198.698  198.026  197.864  198.366  197.954  197.845  197.309  197.373  197.189  199.033  197.800 
DATE 2017:080:18:13:15 obsn 110 az 298 el 51 freq_MHz  1413.0000 Tsys 175.088 Tant 16.601 vlsr  -26.99 glat  0.880 glon 76.965 azoff 7.90 eloff 0.00 source CygnusX 
Fstart 1411.997 fstop 1414.003 spacing 0.009375 bw    2.400 fbw    2.000 MHz nfreq 256 nsam 5242880 npoint 214 integ    81 sigma    0.402 bsw 9
Spectrum     74 integration periods
  10.359   10.172    9.329    9.456    9.874    9.208   10.206    9.884    9.553    9.489    9.033    9.859    9.715    9.266    9.375    9.118    9.451    9.615    8.911    9.416    9.928    9.765    9.401    9.989   10.494   10.201    9.326    9.952    9.401   10.207   10.364    9.853    9.802    9.526    9.816    9.823    9.251    9.431    9.918   10.438    9.957    9.430    8.741    9.286   10.155    9.380    9.943    9.789    9.740    8.648    9.363    9.776    9.426    9.201    9.153   10.245   10.074    9.738    9.592   10.235    9.832    9.472    9.645    9.157    9.210    9.185    9.335   10.621    9.848    9.736    9.062    9.654    9.130    9.274    9.473    8.969    8.639    8.676    9.055    9.109    9.085    9.138    9.062    9.508    9.240    9.717    9.375    9.515    9.152    9.104    8.956    9.069    9.479    9.681    8.356    8.760    8.987    9.208    8.843    8.804    9.275    8.592    8.890    8.631    8.994    9.237    9.760    8.924    8.996    8.271    8.497    8.504    8.599    9.070    8.431    8.476    8.484    8.990    8.703    8.836    8.610    8.491    9.068    8.484    8.643    8.032    8.603    9.228    8.411    8.795    8.654    8.516    8.164    8.513    8.819    8.570    9.108    8.358    8.136    8.748    8.048    8.751    9.014    8.625    8.668    8.605    9.035    7.955    8.543    8.130    8.356    8.334    8.057    7.357    8.551    8.830    7.779    8.237    8.108    9.055    7.526    7.332    7.602    8.224    8.448    8.253    8.296    8.001    7.216    8.908    7.220    7.866    7.838    7.510    7.340    7.332    8.198    8.310    7.192    8.504    8.386    7.633    7.982    7.448    7.681    8.208    7.133    7.800    6.923    7.870    7.913    7.591    7.510    7.267    7.427    6.917    8.596    7.617    7.304    7.111    7.731    7.656    7.708    7.799    7.074    7.404    6.319    7.843    7.079    6.991    7.762    7.107    6.612    6.708 
DATE 2017:080:18:13:44 obsn 111 az 290 el 51 freq_MHz  1413.0000 Tsys 175.088 Tant 19.461 vlsr  -26.99 glat  0.880 glon 76.965 azoff 0.00 eloff 0.00 source CygnusX 
Fstart 1411.997 fstop 1414.003 spacing 0.009375 bw    2.400 fbw    2.000 MHz nfreq 256 nsam 5242880 npoint 214 integ    92 sigma    0.378 bsw 10
Spectrum     84 integration periods
   9.444    9.115    8.424    8.710    8.842    8.427    9.286    9.022    8.862    8.684    8.379    8.993    9.055    8.613    8.430    8.278    8.574    8.942    8.157    8.794    8.935    8.802    8.971    8.818    9.447    9.420    8.417    8.971    8.535    9.203    9.243    8.980    9.055    8.701    8.902    9.004    8.151    8.493    8.934    9.591    9.284    8.704    7.668    8.490    8.950    8.481    8.654    8.896    8.789    7.997    8.629    8.818    8.342    8.403    8.303    9.536    8.914    8.733    8.821    9.481    9.180    8.441    8.750    8.622    8.472    8.426    8.541    9.732    8.958    9.117    8.284    8.826    8.341    8.576    8.627    8.583    8.113    8.084    8.378    8.505    8.537    8.509    8.252    8.731    8.571    8.734    8.567    8.637    8.389    8.317    8.098    8.209    8.717    8.579    7.486    7.966    8.171    8.339    8.187    8.064    8.287    7.506    8.301    7.711    8.006    8.607    8.689    8.159    8.220    7.695    7.701    7.539    7.926    8.409    7.536    7.676    7.741    8.178    7.910    8.066    7.739    7.777    8.518    7.965    7.907    7.273    7.570    8.230    8.001    7.958    7.987    7.873    7.326    7.785    7.673    7.688    7.987    7.405    7.287    7.857    7.095    8.047    8.229    7.712    7.799    7.499    8.339    7.062    7.769    7.433    7.399    7.561    7.175    6.472    7.797    7.901    7.031    7.820    7.154    7.834    6.926    6.672    6.967    7.271    7.518    7.598    7.438    7.357    6.418    7.862    6.749    7.151    6.869    6.956    6.459    6.606    7.347    7.107    6.519    7.530    7.403    6.926    7.093    6.451    6.962    7.283    6.562    6.956    6.110    6.868    7.072    6.832    6.643    6.463    6.638    6.349    7.531    6.934    6.577    6.284    6.584    6.893    6.702    7.129    6.395    6.594    5.731    6.887    6.393    6.307    6.847    6.504    5.884    6.054 
DATE 2017:080:18:14:22 obsn 112 az 282 el 50 freq_MHz  1413.0000 Tsys 175.088 Tant 13.927 vlsr  -26.99 glat  0.880 glon 76.965 azoff -7.87 eloff 0.00 source CygnusX 
Fstart 1411.997 fstop 1414.003 spacing 0.009375 bw    2.400 fbw    2.000 MHz nfreq 256 nsam 5242880 npoint 214 integ   103 sigma    0.357 bsw 11
Spectrum     94 integration periods
   9.960    9.611    9.241    9.437    9.475    9.119    9.956    9.655    9.442    9.316    8.891    9.563    9.822    8.965    9.108    8.940    9.127    9.646    8.769    9.403    9.482    9.335    9.500    9.482    9.959    9.626    9.092    9.583    9.175    9.948    9.771    9.528    9.533    9.152    9.457    9.770    8.578    9.019    9.459   10.069    9.856    9.284    8.526    9.314    9.675    9.013    9.080    9.395    9.485    8.630    9.034    9.417    8.754    9.111    8.954   10.126    9.560    9.400    9.491   10.068    9.797    9.207    9.343    9.050    9.113    9.042    9.194   10.299    9.511    9.582    8.799    9.401    8.911    9.120    9.498    9.209    8.639    8.744    8.928    9.224    8.911    9.026    8.870    9.374    9.020    9.185    9.213    9.141    9.006    8.880    8.622    8.710    9.273    9.031    8.020    8.469    8.767    8.938    8.676    8.692    8.861    8.261    8.878    8.260    8.676    9.218    9.228    8.643    8.802    8.396    8.416    8.136    8.523    8.850    8.134    8.400    8.395    8.681    8.528    8.575    8.438    8.261    9.090    8.776    8.363    8.014    8.179    8.817    8.658    8.409    8.400    8.696    7.930    8.556    8.377    8.346    8.704    8.145    8.087    8.194    7.696    8.534    8.808    8.343    8.484    8.316    8.974    8.062    8.438    8.265    8.155    8.467    7.776    7.352    8.470    8.540    7.777    8.307    7.830    8.462    7.574    7.488    7.726    7.841    7.913    8.222    8.038    7.955    7.310    8.649    7.591    8.052    7.591    7.508    7.099    7.219    7.875    7.729    7.149    8.042    7.958    7.680    7.773    6.944    7.532    7.942    7.351    7.787    6.805    7.433    7.632    7.445    7.212    7.289    7.512    6.972    8.273    7.733    7.202    7.051    7.298    7.769    7.359    7.699    7.109    7.041    6.657    7.390    7.048    6.873    7.623    7.102    6.498    6.838 
DATE 2017:080:18:14:46 obsn 113 az 290 el 50 freq_MHz  1413.0000 Tsys 175.088 Tant 18.712 vlsr  -26.99 glat  0.880 glon 76.965 azoff 0.00 eloff 0.00 source CygnusX 
Fstart 1411.997 fstop 1414.003 spacing 0.009375 bw    2.400 fbw    2.000 MHz nfreq 256 nsam 5242880 npoint 214 integ   114 sigma    0.339 bsw 12
Spectrum    104 integration periods
   9.082    8.640    8.415    8.464    8.425    8.090    8.884    8.785    8.491    8.269    7.959    8.320    8.811    8.117    7.917    7.999    8.036    8.727    7.895    8.406    8.260    8.450    8.269    8.570    9.169    8.408    8.061    8.551    8.192    8.800    8.797    8.519    8.767    8.154    8.355    8.590    7.649    8.073    8.412    9.023    8.770    8.275    7.535    8.286    8.539    7.981    8.026    8.483    8.394    7.670    7.999    8.438    7.657    7.788    8.058    9.004    8.544    8.371    8.435    9.034    8.675    8.146    8.352    8.177    7.940    7.748    7.977    9.025    8.329    8.433    7.550    8.304    8.026    8.050    8.482    8.152    7.722    7.751    7.701    8.149    7.944    7.922    7.881    8.342    7.950    8.168    8.001    8.173    7.915    7.949    7.541    7.553    8.246    7.950    7.074    7.489    7.844    8.014    7.547    7.527    8.008    7.462    7.773    7.371    7.618    8.229    8.105    7.503    7.883    7.491    7.528    7.242    7.470    7.958    7.109    7.309    7.219    7.515    7.345    7.483    7.295    7.228    8.012    7.789    7.412    7.181    7.108    7.703    7.419    7.299    7.458    7.456    7.061    7.585    7.454    7.145    7.605    7.291    7.216    7.287    6.787    7.352    7.788    7.663    7.462    7.318    7.917    7.027    7.520    7.223    6.974    7.457    6.864    6.490    7.397    7.650    6.758    7.167    6.728    7.428    6.888    6.521    6.739    6.840    6.981    7.219    6.973    6.903    6.347    7.431    6.648    6.869    6.462    6.350    6.145    6.272    6.764    6.608    6.337    6.858    6.922    6.697    6.796    5.904    6.455    7.031    6.292    6.740    5.768    6.479    6.801    6.306    6.186    6.378    6.390    5.977    7.134    6.639    6.194    5.954    6.415    6.714    6.303    6.482    6.081    6.132    5.709    6.539    6.191    5.926    6.705    6.040    5.462    5.882 
DATE 2017:080:18:15:09 obsn 114 az 298 el 50 freq_MHz  1413.0000 Tsys 175.088 Tant 15.760 vlsr  -26.99 glat  0.880 glon 76.965 azoff 7.84 eloff 0.00 source CygnusX 
Fstart 1411.997 fstop 1414.003 spacing 0.009375 bw    2.400 fbw    2.000 MHz nfreq 256 nsam 5242880 npoint 214 integ   125 sigma    0.324 bsw 13
Spectrum    114 integration periods
   8.660    8.471    8.255    8.116    8.077    7.760    8.603    8.458    8.093    7.891    7.690    7.941    8.401    7.884    7.589    7.529    7.824    8.462    7.727    7.980    8.094    8.091    8.066    8.048    8.715    8.320    7.835    8.096    7.856    8.399    8.324    8.303    8.609    7.885    8.078    8.332    7.443    7.661    8.219    8.716    8.485    7.795    7.404    7.990    8.060    7.634    7.601    8.171    8.111    7.534    7.727    8.029    7.471    7.515    7.663    8.568    8.152    7.933    8.089    8.514    8.255    7.844    7.932    7.674    7.670    7.381    7.649    8.587    7.909    8.085    7.225    7.774    7.831    7.792    8.058    7.716    7.327    7.406    7.218    7.883    7.632    7.511    7.512    7.887    7.564    7.775    7.591    7.747    7.705    7.565    7.173    7.123    7.967    7.491    6.729    7.023    7.395    7.475    7.214    7.045    7.597    7.123    7.330    6.881    7.295    8.028    7.581    7.094    7.447    6.982    7.184    6.899    6.960    7.542    6.653    6.888    6.615    6.984    7.003    7.008    6.796    6.839    7.787    7.372    7.203    6.781    6.462    7.314    7.051    6.813    6.972    7.102    6.592    7.141    6.933    6.586    7.192    6.827    6.578    6.744    6.243    6.963    7.400    7.120    7.015    6.765    7.479    6.757    7.011    6.659    6.380    7.010    6.397    5.943    6.851    7.091    6.343    6.700    6.339    6.807    6.403    6.083    6.261    6.276    6.347    6.724    6.560    6.417    5.827    6.763    6.163    6.419    5.965    5.772    5.671    5.726    6.133    6.142    5.879    6.172    6.402    6.340    6.280    5.484    6.074    6.553    5.922    6.168    5.420    6.051    6.448    5.769    5.645    5.952    5.782    5.727    6.583    6.017    5.701    5.435    5.910    6.255    5.778    6.022    5.600    5.572    5.186    6.067    5.727    5.381    6.304    5.441    5.048    5.299 
DATE 2017:080:18:15:39 obsn 115 az 290 el 50 freq_MHz  1413.0000 Tsys 175.088 Tant 24.779 vlsr  -26.99 glat  0.880 glon 76.965 azoff 0.00 eloff 0.00 source CygnusX 
Fstart 1411.997 fstop 1414.003 spacing 0.009375 bw    2.400 fbw    2.000 MHz nfreq 256 nsam 5242880 npoint 214 integ   135 sigma    0.311 bsw 14
Spectrum    124 integration periods
   8.477    8.387    8.162    8.080    7.968    7.523    8.518    8.281    8.126    7.879    7.659    7.959    8.272    7.814    7.533    7.622    7.815    8.285    7.709    7.871    7.899    7.973    7.972    7.946    8.608    8.184    7.719    8.026    7.597    8.055    8.154    8.195    8.421    7.783    7.998    8.211    7.372    7.530    8.218    8.431    8.303    7.621    7.504    7.858    7.976    7.554    7.609    8.005    7.982    7.372    7.558    7.980    7.473    7.450    7.357    8.330    8.010    7.669    7.910    8.349    8.111    7.563    7.687    7.509    7.578    7.468    7.613    8.592    7.883    8.072    7.344    7.584    7.716    7.633    8.019    7.752    7.250    7.231    7.147    7.704    7.674    7.117    7.339    7.846    7.361    7.728    7.540    7.731    7.482    7.489    7.028    6.944    7.769    7.214    6.736    7.080    7.455    7.233    7.158    6.902    7.357    6.974    7.222    6.817    7.236    8.033    7.476    6.853    7.275    6.978    7.069    6.834    6.889    7.436    6.519    6.904    6.563    6.799    6.787    6.809    6.705    6.639    7.551    7.356    7.196    6.589    6.351    7.116    6.819    6.531    6.709    6.906    6.527    6.992    6.824    6.618    6.939    6.679    6.504    6.664    6.233    6.822    7.226    6.851    7.010    6.631    7.437    6.743    6.988    6.493    6.501    6.618    6.358    5.925    6.775    6.922    6.236    6.694    6.143    6.612    6.263    6.047    6.261    6.107    6.444    6.516    6.493    6.352    5.619    6.422    6.172    6.473    5.947    5.606    5.612    5.616    5.938    6.035    5.868    5.992    6.241    6.171    6.195    5.371    6.043    6.356    5.833    6.091    5.272    6.000    6.304    5.759    5.568    5.990    5.744    5.671    6.515    5.921    5.732    5.319    5.872    6.060    5.603    5.969    5.540    5.466    5.029    6.016    5.553    5.376    6.289    5.447    4.922    5.208 
DATE 2017:080:18:16:00 obsn 116 az 283 el 50 freq_MHz  1413.0000 Tsys 175.088 Tant 13.573 vlsr  -26.99 glat  0.880 glon 76.965 azoff -7.81 eloff 0.00 source CygnusX 
Fstart 1411.997 fstop 1414.003 spacing 0.009375 bw    2.400 fbw    2.000 MHz nfreq 256 nsam 5242880 npoint 214 integ   146 sigma    0.299 bsw 15
Spectrum    134 integration periods
   8.815    8.701    8.342    8.404    8.367    7.908    8.960    8.488    8.393    8.148    8.183    8.510    8.542    8.227    7.884    8.033    8.143    8.557    8.211    8.161    8.254    8.238    8.350    8.302    8.899    8.588    8.025    8.558    7.963    8.401    8.473    8.518    8.821    8.064    8.223    8.644    7.697    8.162    8.584    8.697    8.577    8.021    7.938    8.225    8.287    8.058    7.853    8.329    8.244    7.811    7.836    8.253    7.909    7.841    7.691    8.711    8.460    8.097    8.319    8.794    8.336    7.935    7.952    7.919    7.981    7.742    8.057    8.758    8.290    8.304    7.607    8.024    8.160    7.986    8.422    8.110    7.565    7.608    7.583    7.946    8.016    7.588    7.820    8.333    7.818    7.833    7.967    8.052    7.821    7.883    7.365    7.473    8.023    7.641    7.207    7.581    7.882    7.600    7.517    7.185    7.756    7.315    7.459    7.268    7.537    8.261    7.739    7.181    7.671    7.046    7.372    7.290    7.150    7.823    7.024    7.298    6.883    7.311    7.179    7.135    6.919    6.786    7.915    7.549    7.461    6.938    6.721    7.594    7.224    6.938    7.081    7.201    6.803    7.342    7.128    6.943    7.135    7.044    6.913    7.129    6.488    7.089    7.457    7.291    7.251    6.825    7.773    6.958    7.259    6.808    6.758    7.006    6.616    6.209    7.130    7.227    6.542    6.984    6.480    6.918    6.614    6.449    6.702    6.349    6.823    6.845    6.944    6.770    6.140    6.780    6.455    6.828    6.150    5.851    6.020    6.083    6.293    6.502    6.308    6.405    6.466    6.472    6.517    5.797    6.238    6.773    6.055    6.425    5.633    6.310    6.558    6.189    6.003    6.370    6.136    6.165    6.788    6.287    6.144    5.709    6.273    6.433    6.019    6.426    5.827    5.811    5.304    6.338    6.003    5.756    6.630    5.674    5.154    5.516 
DATE 2017:080:18:16:24 obsn 117 az 290 el 50 freq_MHz  1413.0000 Tsys 175.088 Tant 20.669 vlsr  -26.99 glat  0.880 glon 76.965 azoff 0.00 eloff 0.00 source CygnusX 
Fstart 1411.997 fstop 1414.003 spacing 0.009375 bw    2.400 fbw    2.000 MHz nfreq 256 nsam 5242880 npoint 214 integ   157 sigma    0.288 bsw 16
Spectrum    144 integration periods
   8.659    8.446    8.217    8.022    8.050    7.604    8.679    8.238    8.189    7.885    7.951    8.218    8.258    7.952    7.657    7.794    7.918    8.383    7.853    7.939    8.232    7.923    8.183    7.969    8.633    8.346    7.786    8.316    7.821    8.195    8.214    8.181    8.446    7.885    7.973    8.328    7.645    7.906    8.290    8.388    8.238    7.770    7.820    7.957    8.004    7.896    7.596    8.219    8.090    7.526    7.546    8.126    7.762    7.571    7.554    8.444    8.192    7.941    8.116    8.576    7.941    7.713    7.836    7.809    7.635    7.403    7.873    8.577    8.157    8.055    7.459    7.880    7.754    7.629    8.180    7.948    7.298    7.359    7.337    7.907    7.775    7.374    7.496    8.005    7.722    7.558    7.733    7.900    7.731    7.759    7.137    7.249    7.864    7.368    7.139    7.356    7.754    7.385    7.260    7.120    7.662    7.137    7.306    7.177    7.340    7.966    7.425    6.926    7.503    6.902    7.236    7.201    7.019    7.628    6.894    7.158    6.780    6.947    7.042    6.930    6.837    6.670    7.604    7.397    7.227    6.742    6.538    7.341    7.062    6.669    6.876    7.143    6.675    6.906    6.898    6.701    6.950    6.811    6.888    6.985    6.274    6.951    7.252    7.130    7.090    6.523    7.521    6.822    6.969    6.646    6.599    6.883    6.533    5.903    6.860    7.163    6.495    6.842    6.277    6.760    6.557    6.447    6.627    6.179    6.573    6.676    6.824    6.584    6.089    6.680    6.350    6.624    5.996    5.680    5.954    5.901    6.217    6.300    6.196    6.300    6.222    6.367    6.302    5.638    6.069    6.656    5.882    6.255    5.537    6.165    6.368    6.159    6.016    6.186    6.050    5.940    6.613    6.208    6.043    5.683    6.172    6.112    5.955    6.272    5.730    5.667    5.206    6.208    5.812    5.742    6.499    5.531    4.924    5.367 
DATE 2017:080:18:16:48 obsn 118 az 298 el 50 freq_MHz  1413.0000 Tsys 175.088 Tant 17.790 vlsr  -26.99 glat  0.880 glon 76.965 azoff 7.79 eloff 0.00 source CygnusX 
Fstart 1411.997 fstop 1414.003 spacing 0.009375 bw    2.400 fbw    2.000 MHz nfreq 256 nsam 5242880 npoint 214 integ   168 sigma    0.279 bsw 17
Spectrum    154 integration periods
   8.544    8.283    7.988    7.780    7.772    7.640    8.511    8.008    8.042    7.700    7.768    7.930    8.166    7.664    7.597    7.701    7.881    8.253    7.796    7.792    8.076    7.688    7.943    7.955    8.346    8.227    7.684    7.993    7.591    8.103    8.132    7.984    8.239    7.696    7.691    8.071    7.481    7.909    8.018    8.078    8.050    7.596    7.650    7.655    7.740    7.728    7.476    7.927    7.957    7.461    7.295    7.932    7.601    7.337    7.399    8.286    7.916    7.796    7.866    8.418    7.749    7.565    7.670    7.593    7.439    7.290    7.615    8.359    8.000    7.876    7.328    7.593    7.605    7.280    7.899    7.663    7.171    7.150    6.994    7.743    7.588    7.164    7.302    7.796    7.527    7.357    7.492    7.627    7.513    7.551    6.940    7.108    7.593    7.195    6.925    7.235    7.452    7.179    7.037    6.836    7.350    6.980    6.918    6.895    7.057    7.739    7.214    6.759    7.365    6.641    7.016    7.059    6.783    7.371    6.710    6.995    6.480    6.700    6.801    6.742    6.598    6.477    7.464    7.229    7.024    6.317    6.273    6.974    6.813    6.495    6.782    6.872    6.521    6.689    6.503    6.496    6.834    6.547    6.674    6.761    6.122    6.785    6.905    6.780    6.808    6.315    7.253    6.546    6.742    6.484    6.423    6.514    6.279    5.672    6.607    6.945    6.237    6.563    6.037    6.491    6.266    6.140    6.363    5.966    6.197    6.459    6.591    6.319    5.822    6.566    6.076    6.365    5.803    5.443    5.645    5.631    5.954    6.102    5.919    6.050    5.961    6.191    6.107    5.524    5.887    6.345    5.758    6.044    5.327    5.944    6.111    5.843    5.849    5.868    5.839    5.717    6.302    5.992    5.825    5.433    5.912    5.847    5.579    5.998    5.403    5.452    5.076    5.956    5.560    5.551    6.221    5.273    4.812    5.129 
DATE 2017:080:18:17:09 obsn 119 az 291 el 50 freq_MHz  1413.0000 Tsys 175.088 Tant 17.777 vlsr  -26.99 glat  0.880 glon 76.965 azoff 0.00 eloff 0.00 source CygnusX 
Fstart 1411.997 fstop 1414.003 spacing 0.009375 bw    2.400 fbw    2.000 MHz nfreq 256 nsam 5242880 npoint 214 integ   179 sigma    0.270 bsw 18
Spectrum    164 integration periods
   8.124    7.855    7.710    7.350    7.323    7.322    8.079    7.751    7.698    7.476    7.424    7.598    7.686    7.250    7.206    7.270    7.443    7.957    7.249    7.287    7.800    7.252    7.576    7.557    7.890    7.832    7.442    7.655    7.251    7.715    7.692    7.460    7.806    7.222    7.217    7.720    7.125    7.614    7.629    7.765    7.661    7.160    7.355    7.250    7.352    7.397    7.001    7.459    7.593    7.144    6.900    7.501    7.243    6.962    7.063    7.900    7.504    7.339    7.298    8.042    7.422    7.200    7.195    7.142    7.077    6.905    7.250    7.961    7.507    7.501    6.881    7.184    7.193    6.930    7.597    7.242    6.951    6.757    6.516    7.427    7.209    6.734    7.000    7.429    7.102    7.017    6.987    7.158    7.215    7.145    6.592    6.755    7.131    6.821    6.572    6.810    7.088    6.796    6.639    6.589    6.874    6.648    6.521    6.638    6.680    7.264    6.806    6.317    7.072    6.259    6.641    6.805    6.400    6.870    6.309    6.502    6.109    6.394    6.349    6.398    6.407    6.111    7.046    6.816    6.644    5.914    5.932    6.400    6.369    6.084    6.367    6.438    6.116    6.305    6.122    6.134    6.321    6.215    6.233    6.376    5.886    6.405    6.599    6.351    6.412    5.836    6.704    6.095    6.235    6.089    6.057    6.114    5.889    5.411    6.209    6.527    5.729    6.160    5.547    6.046    5.893    5.701    5.930    5.499    5.879    5.937    6.147    5.951    5.317    6.160    5.666    5.923    5.434    4.991    5.335    5.284    5.632    5.775    5.623    5.674    5.507    5.804    5.662    5.091    5.399    5.916    5.352    5.650    4.931    5.534    5.781    5.513    5.559    5.529    5.433    5.378    5.781    5.638    5.292    5.088    5.417    5.546    5.304    5.619    4.997    5.167    4.699    5.519    5.171    5.231    5.683    4.749    4.398    4.781 
DATE 2017:080:18:17:33 obsn 120 az 283 el 50 freq_MHz  1413.0000 Tsys 175.088 Tant 12.741 vlsr  -26.99 glat  0.880 glon 76.965 azoff -7.76 eloff 0.00 source CygnusX 
Fstart 1411.997 fstop 1414.003 spacing 0.009375 bw    2.400 fbw    2.000 MHz nfreq 256 nsam 5242880 npoint 214 integ   190 sigma    0.262 bsw 19
Spectrum    174 integration periods
   8.110    7.977    7.781    7.478    7.442    7.298    8.088    7.716    7.769    7.528    7.481    7.626    7.692    7.302    7.351    7.377    7.396    8.024    7.398    7.258    7.850    7.244    7.683    7.729    7.925    7.840    7.453    7.743    7.398    7.770    7.725    7.527    7.822    7.197    7.229    7.677    7.087    7.726    7.611    7.747    7.572    7.233    7.492    7.261    7.471    7.639    7.204    7.543    7.689    7.170    6.993    7.564    7.192    6.998    7.008    7.913    7.482    7.408    7.384    7.988    7.432    7.241    7.295    7.170    7.069    6.991    7.323    8.054    7.503    7.608    7.018    7.275    7.237    6.978    7.587    7.202    7.127    6.850    6.688    7.409    7.294    6.796    6.940    7.467    7.111    7.039    7.036    7.190    7.241    7.148    6.736    6.879    7.217    6.839    6.764    6.919    7.096    6.862    6.734    6.659    7.013    6.688    6.517    6.750    6.752    7.398    6.907    6.459    7.158    6.309    6.727    6.865    6.408    6.956    6.378    6.600    6.194    6.345    6.416    6.451    6.467    6.273    7.050    6.871    6.615    5.889    6.107    6.521    6.491    6.217    6.458    6.581    6.188    6.300    6.270    6.187    6.406    6.278    6.185    6.372    5.954    6.446    6.649    6.434    6.399    5.877    6.632    6.251    6.329    6.014    6.103    6.186    5.925    5.642    6.322    6.607    5.698    6.309    5.681    6.025    5.993    5.791    6.054    5.639    5.971    6.005    6.256    6.016    5.374    6.177    5.686    6.008    5.490    5.116    5.484    5.425    5.666    5.806    5.744    5.692    5.481    5.842    5.740    5.164    5.434    6.005    5.559    5.656    5.119    5.634    5.872    5.601    5.596    5.440    5.589    5.526    5.876    5.710    5.409    5.208    5.504    5.660    5.503    5.646    5.142    5.285    4.718    5.594    5.239    5.353    5.684    4.913    4.526    4.897 
DATE 2017:080:18:17:56 obsn 121 az 291 el 50 freq_MHz  1413.0000 Tsys 175.088 Tant 24.819 vlsr  -26.99 glat  0.880 glon 76.965 azoff 0.00 eloff 0.00 source CygnusX 
Fstart 1411.997 fstop 1414.003 spacing 0.009375 bw    2.400 fbw    2.000 MHz nfreq 256 nsam 5242880 npoint 214 integ   201 sigma    0.255 bsw 20
Spectrum    184 integration periods
   8.142    8.054    7.836    7.676    7.523    7.276    8.199    7.837    7.802    7.630    7.597    7.676    7.624    7.340    7.528    7.452    7.456    8.125    7.528    7.249    7.884    7.372    7.766    7.884    7.996    7.884    7.495    7.723    7.368    7.812    7.714    7.554    7.822    7.176    7.254    7.625    7.199    7.710    7.764    7.785    7.585    7.410    7.662    7.388    7.498    7.777    7.330    7.704    7.679    7.276    7.106    7.626    7.196    7.125    7.111    7.952    7.552    7.426    7.478    8.011    7.348    7.257    7.447    7.234    7.100    7.090    7.459    8.152    7.586    7.749    7.071    7.320    7.349    7.122    7.688    7.292    7.191    6.886    6.844    7.420    7.330    6.981    7.012    7.526    7.352    7.138    7.068    7.282    7.283    7.240    6.687    6.930    7.367    6.937    6.797    6.982    6.993    6.955    6.870    6.741    7.124    6.739    6.545    6.791    6.841    7.369    6.969    6.647    7.237    6.361    6.814    6.977    6.419    6.964    6.475    6.751    6.414    6.574    6.538    6.506    6.571    6.365    7.052    6.871    6.777    6.012    6.204    6.663    6.578    6.247    6.553    6.764    6.222    6.206    6.323    6.264    6.471    6.384    6.184    6.380    5.984    6.658    6.705    6.529    6.496    6.011    6.701    6.341    6.403    6.080    6.209    6.227    6.048    5.795    6.283    6.591    5.752    6.333    5.752    6.124    6.109    5.862    6.133    5.678    6.130    6.077    6.292    6.124    5.378    6.135    5.619    6.035    5.577    5.217    5.594    5.493    5.721    5.753    5.779    5.764    5.607    5.920    5.872    5.243    5.577    6.030    5.612    5.698    5.250    5.703    5.899    5.584    5.630    5.463    5.614    5.573    5.945    5.713    5.432    5.327    5.606    5.736    5.537    5.702    5.189    5.290    4.887    5.693    5.321    5.437    5.715    5.053    4.624    4.869 
DATE 2017:080:18:18:20 obsn 122 az 298 el 50 freq_MHz  1413.0000 Tsys 175.088 Tant 16.291 vlsr  -26.99 glat  0.880 glon 76.965 azoff 7.74 eloff 0.00 source CygnusX 
Fstart 1411.997 fstop 1414.003 spacing 0.009375 bw    2.400 fbw    2.000 MHz nfreq 256 nsam 5242880 npoint 214 integ   212 sigma    0.248 bsw 21
Spectrum    194 integration periods
   8.082    7.962    7.811    7.621    7.432    7.189    8.118    7.656    7.640    7.506    7.448    7.606    7.553    7.219    7.458    7.361    7.525    8.110    7.431    7.173    7.780    7.348    7.667    7.848    7.853    7.829    7.368    7.634    7.344    7.699    7.638    7.462    7.741    7.231    7.179    7.553    7.274    7.657    7.671    7.671    7.463    7.277    7.535    7.290    7.340    7.607    7.243    7.658    7.534    7.120    7.070    7.633    7.145    7.069    7.044    7.732    7.408    7.281    7.327    7.913    7.187    7.064    7.296    7.211    7.073    7.012    7.293    8.029    7.436    7.703    7.006    7.262    7.315    6.965    7.562    7.170    7.139    6.824    6.852    7.333    7.213    6.965    6.952    7.430    7.263    7.090    7.075    7.155    7.107    7.101    6.650    6.749    7.190    6.898    6.733    6.887    6.845    6.925    6.711    6.617    6.956    6.597    6.535    6.650    6.745    7.199    6.839    6.672    7.126    6.219    6.869    6.847    6.373    6.852    6.330    6.606    6.237    6.516    6.492    6.436    6.556    6.199    6.927    6.723    6.677    5.968    6.174    6.522    6.400    6.185    6.405    6.630    6.196    6.045    6.249    6.238    6.402    6.285    6.237    6.287    6.018    6.674    6.596    6.343    6.384    5.927    6.589    6.212    6.267    6.053    6.102    6.184    5.872    5.683    6.161    6.503    5.671    6.210    5.696    5.937    6.102    5.823    6.058    5.541    6.037    6.040    6.218    6.014    5.286    6.022    5.671    5.883    5.629    5.217    5.479    5.347    5.573    5.762    5.783    5.678    5.482    5.889    5.851    5.084    5.475    5.881    5.473    5.565    5.177    5.591    5.775    5.469    5.586    5.342    5.543    5.502    5.779    5.624    5.380    5.330    5.402    5.683    5.464    5.445    5.124    5.250    4.883    5.603    5.159    5.320    5.628    4.888    4.558    4.825 
DATE 2017:080:18:18:42 obsn 123 az 291 el 50 freq_MHz  1413.0000 Tsys 175.088 Tant 20.546 vlsr  -26.99 glat  0.880 glon 76.965 azoff 0.00 eloff 0.00 source CygnusX 
Fstart 1411.997 fstop 1414.003 spacing 0.009375 bw    2.400 fbw    2.000 MHz nfreq 256 nsam 5242880 npoint 214 integ   223 sigma    0.242 bsw 22
Spectrum    204 integration periods
   8.005    7.885    7.798    7.553    7.412    7.134    8.055    7.599    7.568    7.570    7.387    7.593    7.440    7.131    7.375    7.305    7.458    8.124    7.337    7.194    7.839    7.347    7.687    7.746    7.717    7.814    7.332    7.551    7.289    7.629    7.569    7.437    7.748    7.274    7.163    7.543    7.239    7.666    7.604    7.609    7.412    7.195    7.493    7.294    7.318    7.639    7.235    7.639    7.483    7.106    7.031    7.607    7.048    7.096    7.125    7.721    7.309    7.239    7.282    7.760    7.177    7.050    7.227    7.244    6.993    7.053    7.218    7.929    7.401    7.697    6.985    7.296    7.216    6.919    7.496    7.144    7.104    6.902    6.890    7.266    7.126    6.891    6.884    7.357    7.204    7.024    7.001    7.116    7.002    7.073    6.691    6.759    7.145    6.916    6.707    6.784    6.788    6.798    6.737    6.632    6.913    6.521    6.457    6.581    6.709    7.118    6.678    6.683    7.046    6.234    6.801    6.822    6.243    6.741    6.315    6.576    6.181    6.540    6.321    6.323    6.531    6.201    6.799    6.600    6.675    6.016    6.115    6.451    6.370    6.062    6.286    6.502    6.083    6.003    6.122    6.236    6.302    6.266    6.077    6.175    5.891    6.579    6.462    6.287    6.352    5.860    6.381    6.162    6.145    6.016    5.967    6.156    5.834    5.509    6.120    6.296    5.547    6.173    5.662    5.823    6.074    5.736    5.919    5.525    5.975    5.924    6.046    5.892    5.188    5.878    5.579    5.819    5.624    5.081    5.334    5.290    5.433    5.548    5.648    5.542    5.360    5.824    5.685    4.995    5.397    5.745    5.438    5.537    5.118    5.456    5.676    5.401    5.558    5.215    5.474    5.441    5.729    5.574    5.292    5.364    5.420    5.524    5.401    5.425    5.017    5.146    4.831    5.454    5.093    5.167    5.524    4.735    4.521    4.730 
DATE 2017:080:18:19:05 obsn 124 az 283 el 50 freq_MHz  1413.0000 Tsys 175.088 Tant 14.476 vlsr  -26.99 glat  0.880 glon 76.965 azoff -7.71 eloff 0.00 source CygnusX 
Fstart 1411.997 fstop 1414.003 spacing 0.009375 bw    2.400 fbw    2.000 MHz nfreq 256 nsam 5242880 npoint 214 integ   234 sigma    0.237 bsw 23
Spectrum    214 integration periods
   8.345    8.296    8.232    8.037    7.953    7.578    8.559    8.003    7.913    7.986    7.793    7.987    7.838    7.557    7.891    7.735    7.862    8.549    7.799    7.691    8.268    7.763    8.070    8.131    8.197    8.226    7.793    7.931    7.712    8.134    7.970    7.895    8.192    7.797    7.618    7.997    7.602    8.138    8.015    7.957    7.800    7.619    8.047    7.694    7.672    8.073    7.698    8.112    7.956    7.577    7.415    8.001    7.549    7.511    7.635    8.153    7.663    7.725    7.811    8.131    7.561    7.537    7.630    7.686    7.413    7.535    7.636    8.351    7.888    8.128    7.423    7.789    7.693    7.347    7.995    7.665    7.510    7.318    7.353    7.632    7.595    7.327    7.317    7.725    7.662    7.393    7.425    7.534    7.432    7.474    7.295    7.218    7.516    7.338    7.143    7.336    7.190    7.240    7.191    7.196    7.381    7.088    6.883    6.963    7.108    7.525    7.127    7.135    7.412    6.668    7.202    7.298    6.677    7.266    6.755    7.007    6.653    6.951    6.730    6.755    7.017    6.718    7.230    7.013    7.200    6.509    6.627    6.961    6.752    6.558    6.792    6.898    6.610    6.528    6.566    6.580    6.768    6.700    6.591    6.701    6.248    7.088    6.820    6.573    6.707    6.349    6.825    6.631    6.604    6.471    6.443    6.603    6.305    5.981    6.544    6.733    5.945    6.630    6.181    6.276    6.551    6.194    6.326    5.951    6.352    6.321    6.434    6.238    5.539    6.257    5.922    6.173    6.052    5.405    5.877    5.733    5.869    5.913    6.009    5.943    5.737    6.198    6.051    5.443    5.806    6.218    5.838    5.949    5.626    5.890    6.089    5.769    5.967    5.645    5.860    5.838    6.076    5.958    5.781    5.752    5.798    6.074    5.793    5.894    5.442    5.489    5.290    5.852    5.484    5.508    5.949    5.204    4.942    5.128 
DATE 2017:080:18:19:37 obsn 125 az 291 el 49 freq_MHz  1413.0000 Tsys 175.088 Tant 17.373 vlsr  -26.99 glat  0.880 glon 76.965 azoff 0.00 eloff 0.00 source CygnusX 
Fstart 1411.997 fstop 1414.003 spacing 0.009375 bw    2.400 fbw    2.000 MHz nfreq 256 nsam 5242880 npoint 214 integ   245 sigma    0.231 bsw 24
Spectrum    224 integration periods
   8.397    8.411    8.369    8.194    8.136    7.794    8.661    8.236    7.993    8.193    7.974    8.145    8.093    7.692    8.041    7.836    8.015    8.681    7.949    7.887    8.409    7.953    8.178    8.307    8.387    8.367    8.033    8.128    7.865    8.355    8.131    7.989    8.323    7.911    7.806    8.152    7.816    8.264    8.094    8.091    7.881    7.714    8.109    7.720    7.754    8.152    7.843    8.266    8.062    7.719    7.679    8.079    7.735    7.645    7.714    8.275    7.788    7.943    7.973    8.179    7.666    7.648    7.749    7.877    7.506    7.624    7.749    8.416    8.029    8.248    7.571    7.921    7.896    7.566    8.176    7.826    7.710    7.460    7.517    7.766    7.684    7.542    7.434    7.808    7.834    7.525    7.489    7.624    7.424    7.611    7.447    7.390    7.623    7.488    7.281    7.564    7.319    7.331    7.325    7.345    7.448    7.264    7.018    7.085    7.257    7.709    7.312    7.266    7.546    6.902    7.366    7.476    6.769    7.413    6.905    7.109    6.862    7.086    6.882    6.922    7.167    6.852    7.415    7.144    7.344    6.633    6.706    7.135    6.912    6.687    6.925    7.098    6.702    6.713    6.715    6.743    6.881    6.854    6.728    6.961    6.501    7.228    6.875    6.699    6.820    6.578    6.950    6.757    6.811    6.529    6.537    6.691    6.509    6.202    6.630    6.879    6.172    6.657    6.336    6.420    6.774    6.328    6.469    6.083    6.484    6.495    6.572    6.384    5.674    6.391    6.140    6.416    6.168    5.544    5.978    5.913    6.030    6.045    6.147    6.181    5.951    6.296    6.298    5.630    6.004    6.409    5.984    6.047    5.845    5.978    6.139    5.969    6.163    5.865    6.037    5.997    6.209    6.100    5.911    5.891    5.945    6.279    5.841    6.097    5.602    5.608    5.434    5.990    5.646    5.692    6.066    5.428    5.046    5.305 
DATE 2017:080:18:20:01 obsn 126 az 298 el 49 freq_MHz  1413.0000 Tsys 175.088 Tant 18.370 vlsr  -26.99 glat  0.880 glon 76.965 azoff 7.69 eloff 0.00 source CygnusX 
Fstart 1411.997 fstop 1414.003 spacing 0.009375 bw    2.400 fbw    2.000 MHz nfreq 256 nsam 5242880 npoint 214 integ   256 sigma    0.226 bsw 25
Spectrum    234 integration periods
 193.806  191.990  190.821  191.321  190.720  190.686  190.980  191.738  191.392  191.380  191.334  191.352  191.338  191.211  191.430  191.321  191.487  191.415  191.289  191.450  191.515  191.541  191.252  191.771  192.014  191.669  191.660  192.116  192.042  192.530  192.246  192.145  192.229  192.467  192.356  192.268  192.230  192.373  192.620  192.461  192.606  192.933  192.715  192.838  192.826  192.890  193.322  192.755  193.081  192.931  193.560  193.214  193.242  193.276  193.103  193.285  193.160  193.147  193.175  192.964  193.101  193.326  193.653  193.805  193.741  193.427  193.628  194.123  193.507  193.599  193.790  194.311  193.526  194.162  193.694  193.835  194.075  193.830  193.977  193.990  193.820  194.247  194.265  194.199  194.567  194.448  194.546  194.276  195.229  194.621  195.143  194.916  195.225  194.752  194.738  194.546  194.673  194.761  194.583  194.773  194.806  195.082  194.917  194.952  195.019  195.202  195.042  195.235  195.283  195.608  195.731  195.034  195.164  195.365  195.412  195.298  195.299  195.647  195.252  195.279  195.740  195.605  195.515  195.717  195.807  195.632  196.004  196.288  196.171  195.968  195.950  196.355  195.591  195.925  195.654  195.873  195.844  195.593  195.593  195.974  195.575  195.532  195.518  195.900  196.120  195.815  195.744  195.571  196.389  195.707  195.816  195.708  196.374  196.172  195.739  196.035  195.840  195.955  195.697  195.875  196.008  195.630  195.788  195.665  195.799  196.243  196.035  195.760  195.839  196.380  195.951  195.835  195.609  195.681  195.828  195.308  195.626  195.768  195.540  195.643  195.315  195.287  195.871  195.365  195.397  195.175  195.772  195.360  195.322  195.318  195.455  195.303  195.043  195.317  195.179  195.344  195.226  195.625  195.570  195.593  195.552  195.885  195.920  196.346  195.869  195.882  196.180  196.063  195.691  195.445  195.372  195.063  196.507  196.062 
DATE 2017:080:18:20:14 obsn 127 az 298 el 49 freq_MHz  1413.0000 Tsys 175.088 Tant 17.743 vlsr  -26.99 glat  0.880 glon 76.965 azoff 7.69 eloff 0.00 source CygnusX 
Fstart 1411.997 fstop 1414.003 spacing 0.009375 bw    2.400 fbw    2.000 MHz nfreq 256 nsam 5242880 npoint 214 integ   267 sigma    0.222 bsw 25
Spectrum    244 integration periods
   7.689    7.844    7.756    7.607    7.594    7.130    7.929    7.603    7.329    7.678    7.311    7.473    7.528    7.157    7.440    7.277    7.412    8.001    7.378    7.324    7.676    7.443    7.626    7.626    7.563    7.690    7.446    7.570    7.371    7.739    7.585    7.352    7.772    7.480    7.203    7.504    7.318    7.657    7.423    7.418    7.268    7.107    7.560    7.189    7.113    7.497    7.284    7.509    7.388    7.058    7.173    7.488    7.230    7.091    7.127    7.549    7.128    7.376    7.298    7.533    7.052    7.135    7.175    7.319    6.860    7.111    7.197    7.764    7.319    7.551    7.088    7.285    7.237    6.924    7.547    7.169    6.977    6.853    6.963    7.250    7.119    6.827    6.681    7.237    7.133    6.862    7.048    7.051    6.813    7.041    6.919    6.782    6.989    6.873    6.757    6.918    6.630    6.722    6.764    6.758    6.811    6.705    6.430    6.533    6.604    7.069    6.722    6.802    6.856    6.330    6.857    6.957    6.175    6.846    6.342    6.596    6.278    6.540    6.313    6.339    6.512    6.323    6.577    6.489    6.732    6.045    6.039    6.333    6.353    6.028    6.348    6.525    6.035    6.017    6.073    6.132    6.166    6.224    6.198    6.360    5.936    6.567    6.176    6.045    6.270    5.943    6.295    6.122    6.226    5.908    5.979    5.998    5.840    5.643    6.057    6.159    5.559    5.982    5.843    5.737    6.177    5.675    5.730    5.432    5.867    5.928    5.956    5.718    5.068    5.835    5.566    5.786    5.345    4.862    5.347    5.319    5.297    5.499    5.509    5.620    5.272    5.688    5.668    5.080    5.276    5.822    5.296    5.451    5.199    5.347    5.457    5.397    5.505    5.237    5.411    5.461    5.533    5.286    5.140    5.314    5.434    5.668    5.353    5.500    5.064    4.984    4.898    5.395    5.046    5.064    5.388    4.932    4.597    4.673 
DATE 2017:080:18:20:35 obsn 128 az 291 el 49 freq_MHz  1413.0000 Tsys 175.088 Tant 17.539 vlsr  -26.99 glat  0.880 glon 76.965 azoff 0.00 eloff 0.00 source CygnusX 
Fstart 1411.997 fstop 1414.003 spacing 0.009375 bw    2.400 fbw    2.000 MHz nfreq 256 nsam 5242880 npoint 214 integ   277 sigma    0.217 bsw 26
Spectrum    254 integration periods
   7.405    7.462    7.365    7.207    7.216    6.797    7.473    7.191    6.881    7.247    6.878    7.071    7.147    6.781    6.974    6.871    7.002    7.534    7.001    6.894    7.250    7.031    7.264    7.141    7.253    7.319    7.097    7.238    6.928    7.400    7.208    7.005    7.448    7.056    6.776    7.170    6.899    7.208    7.038    6.961    6.892    6.780    7.066    6.822    6.674    7.150    6.888    7.148    7.011    6.706    6.775    7.161    6.818    6.669    6.761    7.128    6.753    7.007    6.916    7.125    6.722    6.737    6.677    6.925    6.451    6.691    6.835    7.390    6.948    7.091    6.731    6.828    6.878    6.461    7.098    6.737    6.627    6.413    6.536    6.791    6.688    6.397    6.260    6.867    6.648    6.441    6.596    6.689    6.378    6.666    6.527    6.359    6.530    6.502    6.392    6.484    6.323    6.310    6.333    6.385    6.481    6.198    6.034    6.089    6.188    6.675    6.344    6.414    6.514    5.884    6.497    6.616    5.795    6.429    5.892    6.265    5.826    6.119    5.975    6.007    6.111    5.921    6.256    6.067    6.376    5.717    5.636    5.983    5.897    5.692    5.969    6.147    5.659    5.636    5.702    5.831    5.693    5.831    5.785    5.973    5.548    6.271    5.899    5.604    5.894    5.552    5.956    5.734    5.805    5.587    5.694    5.556    5.358    5.182    5.650    5.777    5.177    5.599    5.412    5.370    5.776    5.263    5.285    5.106    5.442    5.543    5.503    5.345    4.718    5.392    5.154    5.411    5.024    4.515    4.971    4.929    4.888    5.113    5.081    5.209    4.845    5.292    5.275    4.721    4.843    5.438    4.988    5.136    4.862    4.998    5.094    5.066    5.120    4.761    5.026    5.149    5.078    4.895    4.875    4.978    5.136    5.258    5.044    5.162    4.699    4.696    4.509    4.978    4.669    4.655    4.990    4.519    4.314    4.323 
DATE 2017:080:18:21:05 obsn 129 az 283 el 49 freq_MHz  1413.0000 Tsys 175.088 Tant 12.522 vlsr  -26.99 glat  0.880 glon 76.965 azoff -7.66 eloff 0.00 source CygnusX 
Fstart 1411.997 fstop 1414.003 spacing 0.009375 bw    2.400 fbw    2.000 MHz nfreq 256 nsam 5242880 npoint 214 integ   288 sigma    0.213 bsw 27
Spectrum    264 integration periods
   7.593    7.633    7.579    7.382    7.438    7.047    7.760    7.389    7.109    7.424    7.097    7.314    7.354    6.991    7.225    7.101    7.311    7.713    7.234    7.118    7.388    7.250    7.538    7.385    7.468    7.465    7.305    7.385    7.170    7.621    7.420    7.187    7.667    7.299    6.895    7.383    7.092    7.357    7.217    7.232    7.139    6.960    7.203    7.019    6.921    7.348    7.135    7.360    7.305    7.018    7.096    7.370    7.019    6.941    6.960    7.293    6.996    7.203    7.161    7.277    6.973    6.975    6.938    7.187    6.775    6.879    7.050    7.612    7.246    7.328    6.987    7.028    7.017    6.759    7.322    7.013    6.850    6.666    6.746    6.962    6.863    6.567    6.466    7.048    6.835    6.651    6.781    6.885    6.605    6.922    6.768    6.662    6.891    6.772    6.638    6.712    6.560    6.510    6.619    6.636    6.621    6.470    6.289    6.311    6.386    6.884    6.602    6.604    6.832    6.181    6.721    6.853    6.005    6.599    6.093    6.482    6.032    6.349    6.167    6.227    6.291    6.208    6.433    6.290    6.529    5.935    5.942    6.278    6.127    5.972    6.253    6.408    5.911    5.916    5.968    6.022    5.942    6.154    6.057    6.213    5.757    6.448    6.128    5.801    6.123    5.788    6.165    6.003    6.062    5.818    5.828    5.783    5.608    5.433    5.921    5.981    5.490    5.868    5.666    5.597    5.898    5.551    5.492    5.358    5.654    5.733    5.772    5.599    4.994    5.662    5.455    5.606    5.281    4.818    5.203    5.141    5.070    5.322    5.302    5.543    5.052    5.577    5.536    4.923    5.121    5.690    5.280    5.453    5.124    5.240    5.306    5.280    5.381    5.072    5.315    5.399    5.345    5.134    5.146    5.201    5.317    5.450    5.279    5.407    4.979    5.045    4.786    5.271    4.962    4.910    5.192    4.812    4.436    4.476 
DATE 2017:080:18:21:29 obsn 130 az 291 el 49 freq_MHz  1413.0000 Tsys 175.088 Tant 19.004 vlsr  -26.99 glat  0.880 glon 76.965 azoff 0.00 eloff 0.00 source CygnusX 
Fstart 1411.997 fstop 1414.003 spacing 0.009375 bw    2.400 fbw    2.000 MHz nfreq 256 nsam 5242880 npoint 214 integ   299 sigma    0.209 bsw 28
Spectrum    274 integration periods
   7.443    7.517    7.497    7.321    7.380    6.954    7.705    7.264    6.968    7.304    7.007    7.224    7.259    6.792    7.085    6.991    7.122    7.529    7.119    6.983    7.318    7.267    7.379    7.142    7.376    7.346    7.223    7.302    7.062    7.442    7.268    7.101    7.524    7.156    6.743    7.267    6.937    7.221    7.112    7.105    6.978    6.794    7.038    6.948    6.809    7.122    7.063    7.240    7.174    6.938    7.028    7.184    6.898    6.817    6.879    7.174    6.938    7.117    6.963    7.167    6.881    6.811    6.806    6.995    6.597    6.770    6.904    7.502    7.097    7.234    6.817    6.823    6.959    6.595    7.175    6.900    6.695    6.519    6.650    6.877    6.698    6.484    6.358    6.899    6.610    6.459    6.661    6.788    6.470    6.839    6.601    6.597    6.799    6.670    6.512    6.618    6.453    6.309    6.459    6.481    6.456    6.355    6.139    6.110    6.224    6.763    6.403    6.433    6.683    6.031    6.598    6.766    5.838    6.388    5.996    6.347    5.868    6.113    5.959    6.145    6.150    6.037    6.253    6.078    6.361    5.771    5.723    6.075    6.017    5.824    6.080    6.197    5.789    5.787    5.842    5.886    5.829    6.044    5.905    6.039    5.683    6.334    5.940    5.708    5.937    5.636    5.893    5.910    5.907    5.644    5.661    5.751    5.370    5.321    5.745    5.820    5.367    5.748    5.590    5.394    5.737    5.486    5.370    5.242    5.521    5.619    5.644    5.515    4.874    5.541    5.280    5.399    5.124    4.749    5.087    4.989    4.861    5.217    5.166    5.409    4.945    5.496    5.343    4.771    5.025    5.562    5.152    5.324    4.995    5.106    5.195    5.105    5.276    4.975    5.156    5.232    5.241    4.953    4.908    5.102    5.169    5.291    5.151    5.225    4.855    4.889    4.660    5.137    4.762    4.761    5.042    4.707    4.354    4.338 
DATE 2017:080:18:21:52 obsn 131 az 298 el 49 freq_MHz  1413.0000 Tsys 175.088 Tant 17.240 vlsr  -26.99 glat  0.880 glon 76.965 azoff 7.64 eloff 0.00 source CygnusX 
Fstart 1411.997 fstop 1414.003 spacing 0.009375 bw    2.400 fbw    2.000 MHz nfreq 256 nsam 5242880 npoint 214 integ   310 sigma    0.205 bsw 29
Spectrum    284 integration periods
   7.394    7.459    7.429    7.293    7.356    6.913    7.722    7.146    6.889    7.227    6.967    7.154    7.160    6.763    7.069    6.942    7.090    7.555    7.040    6.930    7.242    7.219    7.372    7.068    7.305    7.278    7.195    7.230    6.996    7.350    7.281    7.051    7.429    7.104    6.757    7.162    6.844    7.149    7.047    7.085    6.945    6.729    6.976    6.939    6.708    7.067    6.986    7.168    7.095    6.821    6.909    7.161    6.876    6.728    6.833    7.117    6.820    7.089    6.968    7.113    6.756    6.747    6.728    6.945    6.498    6.733    6.847    7.367    7.070    7.126    6.762    6.705    6.805    6.548    7.115    6.858    6.639    6.462    6.522    6.833    6.624    6.431    6.260    6.775    6.550    6.409    6.585    6.687    6.436    6.692    6.557    6.624    6.703    6.636    6.548    6.616    6.328    6.275    6.347    6.477    6.387    6.327    6.083    6.077    6.140    6.645    6.283    6.346    6.588    5.953    6.521    6.657    5.727    6.245    5.901    6.335    5.820    6.014    5.935    6.072    6.072    5.920    6.097    6.016    6.236    5.671    5.601    6.030    5.931    5.853    5.968    6.197    5.641    5.617    5.768    5.820    5.772    5.942    5.782    5.904    5.601    6.158    5.842    5.634    5.800    5.591    5.811    5.751    5.881    5.534    5.525    5.660    5.337    5.248    5.617    5.756    5.267    5.674    5.528    5.305    5.680    5.324    5.319    5.183    5.437    5.528    5.548    5.414    4.751    5.490    5.187    5.267    5.054    4.623    5.010    4.917    4.759    5.096    5.032    5.302    4.878    5.353    5.245    4.718    5.008    5.421    5.081    5.213    4.903    4.920    5.111    4.976    5.222    4.930    5.063    5.183    5.089    4.917    4.871    5.006    5.092    5.181    4.983    5.030    4.754    4.748    4.604    5.021    4.663    4.704    4.873    4.595    4.279    4.236 
DATE 2017:080:18:22:14 obsn 132 az 291 el 49 freq_MHz  1413.0000 Tsys 175.088 Tant 18.461 vlsr  -26.99 glat  0.880 glon 76.965 azoff 0.00 eloff 0.00 source CygnusX 
Fstart 1411.997 fstop 1414.003 spacing 0.009375 bw    2.400 fbw    2.000 MHz nfreq 256 nsam 5242880 npoint 214 integ   321 sigma    0.202 bsw 30
Spectrum    294 integration periods
   7.320    7.379    7.327    7.236    7.265    6.872    7.667    7.086    6.849    7.149    6.869    7.156    7.111    6.755    7.046    6.912    6.988    7.484    7.013    6.860    7.180    7.195    7.387    7.048    7.272    7.227    7.098    7.170    6.863    7.240    7.246    7.024    7.350    7.018    6.720    6.954    6.738    7.039    6.957    7.030    6.849    6.706    6.873    6.799    6.569    6.987    6.838    7.056    6.938    6.756    6.831    7.106    6.725    6.628    6.761    6.942    6.750    6.986    6.855    7.050    6.730    6.676    6.746    6.860    6.401    6.680    6.726    7.223    6.933    6.994    6.671    6.612    6.804    6.528    6.953    6.747    6.547    6.348    6.434    6.781    6.484    6.328    6.226    6.665    6.521    6.337    6.483    6.624    6.336    6.544    6.442    6.490    6.597    6.491    6.498    6.450    6.287    6.164    6.244    6.454    6.267    6.237    6.019    5.973    6.055    6.569    6.177    6.285    6.553    5.870    6.411    6.589    5.641    6.139    5.846    6.151    5.715    5.978    5.864    5.873    5.971    5.781    5.959    5.952    6.113    5.591    5.505    5.932    5.843    5.732    5.805    6.104    5.539    5.547    5.769    5.706    5.617    5.859    5.646    5.771    5.464    6.029    5.749    5.572    5.703    5.511    5.727    5.697    5.860    5.413    5.469    5.535    5.293    5.157    5.580    5.684    5.169    5.537    5.354    5.291    5.650    5.229    5.163    5.132    5.329    5.492    5.477    5.297    4.648    5.397    5.063    5.141    5.018    4.643    4.905    4.852    4.688    4.975    4.904    5.256    4.819    5.310    5.265    4.613    4.928    5.330    5.026    5.109    4.815    4.760    5.021    4.826    5.064    4.912    4.986    5.147    4.993    4.779    4.739    5.018    5.101    5.119    4.807    4.935    4.611    4.596    4.482    4.966    4.516    4.597    4.804    4.507    4.232    4.159 
DATE 2017:080:18:22:43 obsn 133 az 283 el 49 freq_MHz  1413.0000 Tsys 175.088 Tant 14.676 vlsr  -26.99 glat  0.880 glon 76.965 azoff -7.61 eloff 0.00 source CygnusX 
Fstart 1411.997 fstop 1414.003 spacing 0.009375 bw    2.400 fbw    2.000 MHz nfreq 256 nsam 5242880 npoint 214 integ   332 sigma    0.198 bsw 31
Spectrum    304 integration periods
   7.378    7.381    7.379    7.271    7.305    6.881    7.674    7.128    6.844    7.141    6.965    7.209    7.106    6.825    7.035    6.963    6.978    7.459    7.026    6.924    7.158    7.134    7.368    7.148    7.222    7.266    7.068    7.118    6.899    7.216    7.218    7.107    7.411    7.037    6.680    6.885    6.763    7.066    6.912    7.068    6.890    6.631    6.880    6.811    6.515    6.910    6.835    7.087    6.929    6.800    6.829    7.135    6.765    6.673    6.765    6.948    6.719    7.011    6.856    6.981    6.740    6.727    6.741    6.826    6.417    6.720    6.744    7.185    6.945    6.990    6.703    6.616    6.809    6.523    7.008    6.783    6.484    6.377    6.452    6.782    6.508    6.377    6.296    6.641    6.562    6.298    6.472    6.680    6.342    6.539    6.449    6.495    6.616    6.548    6.486    6.531    6.303    6.197    6.272    6.461    6.260    6.243    6.024    5.935    6.102    6.552    6.205    6.261    6.579    5.898    6.416    6.558    5.681    6.168    5.894    6.194    5.759    6.007    5.901    5.928    5.999    5.915    5.983    5.985    6.252    5.611    5.582    5.925    5.844    5.764    5.829    6.055    5.565    5.557    5.754    5.821    5.678    5.845    5.661    5.789    5.495    6.014    5.750    5.636    5.692    5.538    5.701    5.674    5.937    5.417    5.404    5.546    5.279    5.247    5.674    5.696    5.221    5.624    5.407    5.297    5.713    5.301    5.242    5.230    5.367    5.532    5.459    5.339    4.684    5.415    5.100    5.184    5.050    4.687    4.967    4.901    4.745    5.075    4.970    5.269    4.854    5.363    5.277    4.630    4.982    5.416    5.005    5.118    4.890    4.835    5.129    4.881    5.055    4.947    4.964    5.115    5.014    4.817    4.829    5.051    5.167    5.200    4.879    5.033    4.657    4.635    4.500    5.029    4.547    4.599    4.850    4.579    4.250    4.199 
DATE 2017:080:18:23:07 obsn 134 az 291 el 49 freq_MHz  1413.0000 Tsys 175.088 Tant 19.640 vlsr  -26.99 glat  0.880 glon 76.965 azoff 0.00 eloff 0.00 source CygnusX 
Fstart 1411.997 fstop 1414.003 spacing 0.009375 bw    2.400 fbw    2.000 MHz nfreq 256 nsam 5242880 npoint 214 integ   343 sigma    0.195 bsw 32
Spectrum    314 integration periods
   7.191    7.161    7.216    7.079    7.122    6.693    7.445    6.962    6.642    6.913    6.761    7.000    6.904    6.685    6.836    6.744    6.836    7.269    6.825    6.689    6.985    6.960    7.167    7.029    7.014    7.061    6.864    6.896    6.661    7.006    7.027    6.927    7.179    6.878    6.482    6.672    6.551    6.825    6.725    6.851    6.706    6.430    6.740    6.648    6.338    6.701    6.669    6.942    6.825    6.624    6.638    6.928    6.617    6.468    6.610    6.770    6.485    6.849    6.734    6.818    6.601    6.549    6.538    6.650    6.194    6.580    6.607    7.047    6.746    6.818    6.467    6.392    6.529    6.331    6.833    6.568    6.283    6.218    6.277    6.561    6.421    6.189    6.176    6.457    6.410    6.108    6.280    6.511    6.176    6.366    6.202    6.258    6.443    6.350    6.324    6.311    6.078    6.085    6.055    6.294    6.088    6.065    5.777    5.787    5.887    6.358    6.002    6.038    6.428    5.684    6.231    6.338    5.567    5.987    5.726    6.015    5.509    5.846    5.784    5.817    5.744    5.707    5.812    5.789    6.088    5.414    5.383    5.756    5.694    5.594    5.626    5.863    5.372    5.430    5.610    5.636    5.475    5.732    5.455    5.614    5.302    5.840    5.551    5.490    5.519    5.332    5.467    5.466    5.766    5.292    5.216    5.385    5.159    5.113    5.546    5.511    5.089    5.451    5.203    5.139    5.475    5.133    5.109    5.104    5.183    5.320    5.229    5.142    4.537    5.194    4.927    4.978    4.878    4.508    4.775    4.757    4.567    4.926    4.830    5.097    4.671    5.179    5.023    4.401    4.775    5.210    4.782    4.890    4.702    4.722    4.940    4.651    4.847    4.812    4.825    4.962    4.822    4.649    4.689    4.909    4.955    5.045    4.672    4.856    4.519    4.531    4.251    4.848    4.361    4.494    4.677    4.354    4.045    4.059 
DATE 2017:080:18:23:31 obsn 135 az 298 el 49 freq_MHz  1413.0000 Tsys 175.088 Tant 15.481 vlsr  -26.99 glat  0.880 glon 76.965 azoff 7.59 eloff 0.00 source CygnusX 
Fstart 1411.997 fstop 1414.003 spacing 0.009375 bw    2.400 fbw    2.000 MHz nfreq 256 nsam 5242880 npoint 214 integ   354 sigma    0.192 bsw 33
Spectrum    324 integration periods
   7.124    7.177    7.147    7.009    7.141    6.661    7.504    6.936    6.613    6.873    6.777    6.943    6.923    6.712    6.807    6.748    6.834    7.257    6.777    6.659    6.885    6.894    7.215    7.036    6.980    7.018    6.846    6.870    6.694    7.019    6.955    6.872    7.113    6.853    6.489    6.647    6.530    6.797    6.720    6.830    6.592    6.386    6.663    6.669    6.359    6.603    6.614    6.895    6.792    6.574    6.536    6.861    6.568    6.451    6.637    6.785    6.410    6.787    6.671    6.747    6.587    6.498    6.514    6.642    6.208    6.496    6.536    6.981    6.705    6.743    6.404    6.361    6.493    6.287    6.752    6.509    6.275    6.139    6.246    6.495    6.382    6.144    6.132    6.438    6.372    6.068    6.235    6.388    6.135    6.292    6.161    6.238    6.404    6.286    6.284    6.216    6.013    6.034    6.012    6.266    6.015    6.016    5.740    5.732    5.840    6.261    5.946    6.019    6.318    5.640    6.181    6.273    5.556    5.858    5.649    5.976    5.437    5.782    5.728    5.743    5.663    5.613    5.743    5.670    6.037    5.352    5.331    5.649    5.597    5.574    5.537    5.823    5.303    5.383    5.530    5.578    5.439    5.648    5.402    5.542    5.267    5.779    5.443    5.426    5.459    5.266    5.361    5.410    5.712    5.271    5.165    5.275    5.078    5.121    5.484    5.457    5.056    5.381    5.182    5.077    5.466    5.099    5.103    5.053    5.172    5.253    5.181    5.099    4.441    5.092    4.847    4.865    4.760    4.465    4.702    4.623    4.464    4.856    4.720    5.010    4.647    5.136    4.919    4.303    4.691    5.107    4.652    4.801    4.687    4.630    4.851    4.583    4.792    4.734    4.740    4.901    4.738    4.552    4.601    4.828    4.890    5.036    4.627    4.802    4.475    4.493    4.243    4.712    4.275    4.463    4.602    4.325    4.054    3.990 
DATE 2017:080:18:23:52 obsn 136 az 291 el 49 freq_MHz  1413.0000 Tsys 175.088 Tant 19.190 vlsr  -26.99 glat  0.880 glon 76.965 azoff 0.00 eloff 0.00 source CygnusX 
Fstart 1411.997 fstop 1414.003 spacing 0.009375 bw    2.400 fbw    2.000 MHz nfreq 256 nsam 5242880 npoint 214 integ   365 sigma    0.189 bsw 34
Spectrum    334 integration periods
   6.983    7.056    7.084    6.862    7.049    6.559    7.419    6.801    6.536    6.756    6.613    6.801    6.749    6.563    6.657    6.633    6.710    7.055    6.673    6.596    6.750    6.783    7.126    6.924    6.833    6.866    6.736    6.683    6.635    6.899    6.830    6.833    7.040    6.753    6.385    6.568    6.343    6.716    6.624    6.698    6.457    6.260    6.564    6.553    6.249    6.437    6.479    6.786    6.687    6.470    6.450    6.726    6.342    6.353    6.554    6.660    6.335    6.660    6.555    6.560    6.458    6.402    6.358    6.472    6.085    6.442    6.436    6.842    6.593    6.679    6.259    6.291    6.391    6.160    6.562    6.377    6.138    5.993    6.167    6.386    6.239    6.071    6.009    6.236    6.237    5.906    6.128    6.253    6.003    6.127    6.041    6.165    6.270    6.150    6.098    6.132    5.900    5.886    5.933    6.115    5.891    5.856    5.609    5.666    5.731    6.149    5.778    5.949    6.227    5.613    6.073    6.125    5.372    5.700    5.507    5.790    5.328    5.614    5.570    5.640    5.543    5.476    5.689    5.540    5.876    5.232    5.233    5.512    5.506    5.421    5.400    5.720    5.148    5.191    5.382    5.416    5.393    5.464    5.185    5.433    5.146    5.663    5.321    5.300    5.303    5.118    5.206    5.279    5.569    5.149    4.992    5.174    4.950    4.881    5.327    5.304    4.914    5.261    5.079    4.988    5.263    4.865    4.950    4.930    5.082    5.151    5.020    4.929    4.295    4.983    4.690    4.735    4.677    4.325    4.648    4.494    4.338    4.729    4.574    4.822    4.485    5.022    4.795    4.204    4.598    4.975    4.526    4.644    4.527    4.513    4.686    4.512    4.679    4.650    4.593    4.790    4.630    4.434    4.455    4.719    4.713    4.856    4.493    4.637    4.343    4.379    4.120    4.554    4.179    4.320    4.412    4.189    3.919    3.838 
DATE 2017:080:18:24:21 obsn 137 az 283 el 49 freq_MHz  1413.0000 Tsys 175.088 Tant 12.998 vlsr  -26.99 glat  0.880 glon 76.965 azoff -7.56 eloff 0.00 source CygnusX 
Fstart 1411.997 fstop 1414.003 spacing 0.009375 bw    2.400 fbw    2.000 MHz nfreq 256 nsam 5242880 npoint 214 integ   376 sigma    0.187 bsw 35
Spectrum    344 integration periods
   6.987    7.121    7.112    6.894    7.094    6.613    7.506    6.845    6.646    6.717    6.680    6.886    6.737    6.673    6.648    6.696    6.788    7.143    6.732    6.648    6.773    6.834    7.142    6.881    6.864    6.916    6.797    6.745    6.700    6.932    6.883    6.879    7.092    6.799    6.445    6.619    6.419    6.730    6.632    6.706    6.502    6.315    6.648    6.638    6.289    6.489    6.545    6.853    6.710    6.503    6.537    6.743    6.305    6.360    6.544    6.767    6.419    6.682    6.628    6.580    6.471    6.486    6.383    6.483    6.123    6.511    6.491    6.859    6.636    6.752    6.313    6.416    6.400    6.207    6.565    6.464    6.172    6.030    6.244    6.329    6.248    6.180    6.038    6.262    6.321    6.002    6.214    6.299    6.024    6.135    6.074    6.256    6.294    6.262    6.184    6.199    5.900    5.916    6.049    6.156    5.943    5.894    5.688    5.754    5.780    6.149    5.783    5.942    6.267    5.650    6.097    6.226    5.432    5.760    5.521    5.809    5.312    5.641    5.606    5.722    5.639    5.542    5.739    5.585    5.908    5.353    5.285    5.520    5.561    5.486    5.393    5.750    5.201    5.269    5.430    5.515    5.466    5.531    5.205    5.464    5.214    5.645    5.313    5.367    5.369    5.213    5.227    5.296    5.616    5.189    5.042    5.193    5.016    4.933    5.339    5.301    5.031    5.329    5.062    5.040    5.311    4.906    5.069    4.938    5.093    5.255    5.039    5.001    4.291    4.991    4.754    4.770    4.653    4.397    4.690    4.500    4.391    4.763    4.648    4.860    4.508    5.104    4.866    4.252    4.652    4.994    4.535    4.733    4.617    4.506    4.715    4.602    4.806    4.700    4.636    4.805    4.682    4.484    4.525    4.764    4.703    4.903    4.524    4.662    4.301    4.437    4.156    4.596    4.190    4.372    4.467    4.217    3.989    3.924 
DATE 2017:080:18:24:53 obsn 138 az 291 el 48 freq_MHz  1413.0000 Tsys 175.088 Tant 20.681 vlsr  -26.99 glat  0.880 glon 76.965 azoff 0.00 eloff 0.00 source CygnusX 
Fstart 1411.997 fstop 1414.003 spacing 0.009375 bw    2.400 fbw    2.000 MHz nfreq 256 nsam 5242880 npoint 214 integ   387 sigma    0.184 bsw 36
Spectrum    354 integration periods
   7.026    7.136    7.181    6.904    7.136    6.666    7.508    6.895    6.666    6.707    6.668    6.941    6.764    6.702    6.760    6.768    6.792    7.196    6.764    6.638    6.816    6.886    7.168    6.926    6.897    6.956    6.802    6.794    6.735    6.993    6.888    6.891    7.105    6.884    6.539    6.606    6.434    6.728    6.593    6.764    6.534    6.299    6.649    6.621    6.346    6.514    6.593    6.890    6.743    6.552    6.583    6.715    6.337    6.441    6.606    6.824    6.512    6.692    6.708    6.621    6.497    6.494    6.451    6.492    6.096    6.536    6.538    6.903    6.665    6.787    6.327    6.427    6.400    6.264    6.613    6.504    6.199    6.085    6.331    6.370    6.200    6.250    6.110    6.268    6.281    6.068    6.241    6.364    6.035    6.185    6.104    6.270    6.291    6.294    6.212    6.266    5.950    5.960    6.088    6.170    5.977    5.934    5.715    5.788    5.847    6.213    5.801    6.013    6.292    5.662    6.122    6.210    5.485    5.784    5.509    5.801    5.378    5.681    5.597    5.773    5.688    5.603    5.792    5.615    6.000    5.431    5.362    5.552    5.627    5.519    5.383    5.794    5.288    5.279    5.457    5.537    5.478    5.551    5.203    5.431    5.242    5.671    5.349    5.370    5.387    5.234    5.237    5.316    5.646    5.214    5.047    5.235    5.055    5.038    5.379    5.270    5.126    5.298    5.113    5.116    5.331    4.903    5.119    4.959    5.126    5.276    5.026    4.982    4.338    4.978    4.782    4.829    4.678    4.473    4.724    4.593    4.430    4.811    4.635    4.920    4.546    5.161    4.919    4.283    4.696    5.004    4.604    4.771    4.680    4.554    4.736    4.702    4.775    4.781    4.656    4.861    4.710    4.488    4.545    4.801    4.771    4.871    4.531    4.707    4.355    4.501    4.211    4.610    4.186    4.421    4.484    4.255    3.981    3.910 
DATE 2017:080:18:25:17 obsn 139 az 299 el 48 freq_MHz  1413.0000 Tsys 175.088 Tant 17.059 vlsr  -26.99 glat  0.880 glon 76.965 azoff 7.53 eloff 0.00 source CygnusX 
Fstart 1411.997 fstop 1414.003 spacing 0.009375 bw    2.400 fbw    2.000 MHz nfreq 256 nsam 5242880 npoint 214 integ   398 sigma    0.181 bsw 37
Spectrum    364 integration periods
   6.943    7.065    7.074    6.806    7.071    6.574    7.420    6.728    6.518    6.597    6.562    6.864    6.631    6.575    6.651    6.622    6.697    7.131    6.640    6.608    6.719    6.788    7.041    6.811    6.806    6.833    6.723    6.676    6.670    6.929    6.728    6.752    6.977    6.742    6.447    6.507    6.352    6.608    6.477    6.712    6.418    6.176    6.502    6.492    6.269    6.337    6.489    6.732    6.627    6.439    6.484    6.606    6.196    6.329    6.486    6.737    6.371    6.597    6.586    6.452    6.377    6.385    6.306    6.401    5.995    6.434    6.461    6.789    6.557    6.606    6.207    6.339    6.277    6.171    6.470    6.383    6.083    6.023    6.176    6.257    6.099    6.158    6.011    6.178    6.174    5.984    6.111    6.258    5.941    6.101    6.040    6.149    6.234    6.156    6.053    6.118    5.853    5.852    5.936    6.067    5.873    5.820    5.605    5.686    5.762    6.071    5.649    5.872    6.102    5.537    5.910    6.041    5.350    5.653    5.405    5.642    5.268    5.554    5.474    5.626    5.567    5.482    5.686    5.541    5.846    5.304    5.247    5.382    5.494    5.407    5.280    5.675    5.206    5.117    5.343    5.412    5.405    5.421    5.072    5.281    5.123    5.599    5.290    5.258    5.268    5.154    5.094    5.175    5.491    5.138    4.896    5.127    4.934    4.849    5.262    5.124    5.016    5.169    5.024    5.008    5.195    4.817    5.060    4.892    4.990    5.156    4.909    4.852    4.246    4.822    4.660    4.738    4.506    4.387    4.594    4.425    4.355    4.739    4.535    4.794    4.421    5.102    4.835    4.187    4.570    4.895    4.460    4.634    4.553    4.469    4.619    4.643    4.667    4.647    4.498    4.732    4.588    4.420    4.456    4.734    4.652    4.768    4.459    4.570    4.234    4.378    4.109    4.484    4.133    4.315    4.390    4.191    3.879    3.767 
DATE 2017:080:18:25:46 obsn 140 az 291 el 48 freq_MHz  1413.0000 Tsys 175.088 Tant 17.016 vlsr  -26.99 glat  0.880 glon 76.965 azoff 0.00 eloff 0.00 source CygnusX 
Fstart 1411.997 fstop 1414.003 spacing 0.009375 bw    2.400 fbw    2.000 MHz nfreq 256 nsam 5242880 npoint 214 integ   409 sigma    0.179 bsw 38
Spectrum    374 integration periods
   6.912    6.998    7.108    6.781    7.078    6.559    7.352    6.694    6.464    6.540    6.484    6.847    6.639    6.557    6.585    6.643    6.678    7.059    6.624    6.621    6.692    6.736    7.064    6.795    6.791    6.856    6.649    6.613    6.657    6.932    6.733    6.742    6.981    6.707    6.439    6.500    6.345    6.586    6.490    6.615    6.389    6.160    6.426    6.412    6.247    6.386    6.456    6.707    6.584    6.388    6.429    6.546    6.157    6.281    6.406    6.648    6.279    6.490    6.605    6.421    6.298    6.369    6.258    6.353    5.958    6.404    6.439    6.750    6.510    6.539    6.176    6.305    6.232    6.144    6.424    6.329    6.007    5.951    6.234    6.224    6.040    6.149    6.000    6.114    6.131    5.915    6.077    6.234    5.946    6.065    6.005    6.083    6.188    6.093    6.052    6.050    5.848    5.851    5.848    5.981    5.818    5.778    5.537    5.598    5.730    6.049    5.633    5.790    6.005    5.494    5.831    5.994    5.299    5.671    5.337    5.559    5.243    5.531    5.492    5.561    5.531    5.444    5.620    5.512    5.817    5.259    5.199    5.325    5.534    5.380    5.226    5.610    5.201    5.075    5.325    5.414    5.399    5.381    5.041    5.228    5.084    5.516    5.205    5.163    5.223    5.084    5.030    5.122    5.422    5.123    4.879    5.102    4.949    4.840    5.184    5.053    4.961    5.144    5.071    5.024    5.101    4.783    4.980    4.850    4.983    5.123    4.834    4.835    4.256    4.782    4.590    4.718    4.419    4.378    4.543    4.397    4.346    4.732    4.438    4.745    4.343    5.012    4.795    4.126    4.462    4.848    4.438    4.592    4.518    4.408    4.574    4.693    4.662    4.616    4.483    4.729    4.562    4.392    4.451    4.679    4.644    4.710    4.400    4.541    4.244    4.312    4.151    4.514    4.140    4.282    4.350    4.149    3.915    3.781 
DATE 2017:080:18:26:07 obsn 141 az 284 el 48 freq_MHz  1413.0000 Tsys 175.088 Tant 12.666 vlsr  -26.99 glat  0.880 glon 76.965 azoff -7.51 eloff 0.00 source CygnusX 
Fstart 1411.997 fstop 1414.003 spacing 0.009375 bw    2.400 fbw    2.000 MHz nfreq 256 nsam 5242880 npoint 214 integ   419 sigma    0.177 bsw 39
Spectrum    384 integration periods
   6.791    6.876    6.971    6.672    6.913    6.401    7.195    6.585    6.349    6.421    6.346    6.701    6.538    6.427    6.485    6.448    6.526    6.949    6.480    6.483    6.560    6.541    6.975    6.672    6.688    6.705    6.579    6.509    6.557    6.762    6.566    6.581    6.850    6.542    6.242    6.389    6.206    6.391    6.339    6.449    6.297    6.021    6.297    6.314    6.125    6.230    6.377    6.536    6.447    6.272    6.243    6.406    5.986    6.109    6.270    6.496    6.204    6.322    6.468    6.361    6.107    6.174    6.088    6.175    5.819    6.311    6.281    6.596    6.323    6.426    6.048    6.210    6.148    6.027    6.338    6.191    5.866    5.843    6.074    6.086    5.931    6.100    5.892    5.969    6.008    5.759    5.941    6.088    5.837    5.923    5.822    5.941    6.014    5.970    5.910    5.936    5.793    5.760    5.667    5.813    5.676    5.627    5.399    5.484    5.567    5.927    5.461    5.600    5.887    5.385    5.699    5.854    5.186    5.532    5.186    5.403    5.138    5.414    5.388    5.474    5.426    5.275    5.459    5.386    5.689    5.104    5.114    5.216    5.364    5.252    5.138    5.494    5.075    4.995    5.203    5.272    5.231    5.301    4.906    5.089    4.966    5.378    5.088    5.026    5.057    4.965    4.886    4.972    5.267    4.987    4.761    5.002    4.854    4.662    5.062    4.961    4.864    5.019    4.923    4.854    5.028    4.686    4.923    4.696    4.818    5.005    4.750    4.703    4.131    4.646    4.511    4.594    4.305    4.294    4.485    4.228    4.224    4.602    4.318    4.629    4.235    4.913    4.682    4.017    4.358    4.757    4.370    4.504    4.415    4.283    4.440    4.542    4.496    4.478    4.406    4.585    4.487    4.344    4.415    4.591    4.565    4.599    4.250    4.478    4.098    4.205    4.086    4.377    4.051    4.151    4.257    4.092    3.790    3.626 
DATE 2017:080:18:26:31 obsn 142 az 291 el 48 freq_MHz  1413.0000 Tsys 175.088 Tant 20.207 vlsr  -26.99 glat  0.880 glon 76.965 azoff 0.00 eloff 0.00 source CygnusX 
Fstart 1411.997 fstop 1414.003 spacing 0.009375 bw    2.400 fbw    2.000 MHz nfreq 256 nsam 5242880 npoint 214 integ   430 sigma    0.174 bsw 40
Spectrum    394 integration periods
   6.828    6.875    7.019    6.756    6.939    6.427    7.223    6.611    6.403    6.516    6.393    6.753    6.605    6.501    6.564    6.492    6.616    7.002    6.542    6.508    6.588    6.560    6.983    6.722    6.709    6.774    6.636    6.525    6.594    6.814    6.603    6.596    6.895    6.625    6.287    6.460    6.271    6.481    6.377    6.471    6.371    6.112    6.370    6.369    6.158    6.310    6.434    6.549    6.493    6.295    6.308    6.462    6.048    6.129    6.335    6.521    6.270    6.343    6.509    6.400    6.147    6.237    6.158    6.207    5.894    6.377    6.328    6.654    6.372    6.460    6.094    6.271    6.169    6.053    6.315    6.273    5.916    5.852    6.131    6.095    5.946    6.149    5.926    5.980    6.063    5.848    6.047    6.106    5.910    5.977    5.845    5.981    6.050    5.969    5.990    5.976    5.815    5.821    5.733    5.824    5.727    5.665    5.418    5.526    5.587    5.972    5.472    5.654    5.953    5.505    5.731    5.913    5.209    5.583    5.214    5.429    5.194    5.481    5.461    5.530    5.473    5.292    5.540    5.398    5.708    5.111    5.190    5.255    5.355    5.257    5.163    5.553    5.167    5.044    5.243    5.376    5.274    5.300    5.017    5.148    5.065    5.416    5.150    5.052    5.114    4.964    4.935    4.999    5.299    5.005    4.784    5.085    4.899    4.675    5.070    4.945    4.859    5.103    4.979    4.902    5.110    4.670    4.968    4.751    4.842    5.064    4.792    4.747    4.173    4.719    4.560    4.656    4.312    4.348    4.493    4.260    4.293    4.675    4.406    4.675    4.297    4.963    4.710    4.070    4.418    4.814    4.429    4.562    4.486    4.341    4.519    4.548    4.577    4.543    4.459    4.664    4.545    4.406    4.448    4.611    4.628    4.639    4.273    4.535    4.204    4.281    4.153    4.417    4.145    4.249    4.273    4.164    3.820    3.637 
DATE 2017:080:18:26:55 obsn 143 az 299 el 48 freq_MHz  1413.0000 Tsys 175.088 Tant 15.478 vlsr  -26.99 glat  0.880 glon 76.965 azoff 7.49 eloff 0.00 source CygnusX 
Fstart 1411.997 fstop 1414.003 spacing 0.009375 bw    2.400 fbw    2.000 MHz nfreq 256 nsam 5242880 npoint 214 integ   441 sigma    0.172 bsw 41
Spectrum    404 integration periods
   6.630    6.640    6.811    6.548    6.753    6.239    7.000    6.403    6.222    6.335    6.198    6.535    6.407    6.341    6.359    6.320    6.396    6.782    6.347    6.283    6.396    6.423    6.781    6.530    6.531    6.578    6.453    6.331    6.384    6.623    6.434    6.386    6.666    6.434    6.106    6.232    6.080    6.300    6.165    6.292    6.203    5.933    6.196    6.191    5.936    6.072    6.242    6.307    6.304    6.121    6.145    6.295    5.830    5.960    6.129    6.320    6.089    6.154    6.289    6.199    5.988    6.055    5.932    6.014    5.694    6.183    6.163    6.477    6.199    6.245    5.913    6.076    6.017    5.854    6.129    6.089    5.703    5.673    5.942    5.938    5.773    5.948    5.774    5.741    5.873    5.681    5.866    5.924    5.743    5.719    5.641    5.743    5.867    5.807    5.747    5.757    5.675    5.600    5.483    5.665    5.562    5.528    5.229    5.318    5.436    5.784    5.284    5.486    5.738    5.347    5.483    5.703    5.014    5.373    5.051    5.274    4.996    5.257    5.295    5.385    5.321    5.111    5.375    5.207    5.506    4.945    4.979    5.066    5.170    5.088    4.974    5.396    4.966    4.841    5.022    5.180    5.105    5.104    4.897    4.955    4.890    5.175    4.963    4.844    4.982    4.787    4.762    4.790    5.113    4.810    4.583    4.921    4.722    4.474    4.859    4.802    4.669    4.883    4.802    4.717    4.953    4.537    4.811    4.612    4.666    4.930    4.629    4.522    3.957    4.586    4.375    4.526    4.177    4.171    4.350    4.089    4.126    4.498    4.242    4.474    4.157    4.772    4.551    3.907    4.246    4.664    4.252    4.390    4.332    4.247    4.372    4.389    4.422    4.426    4.270    4.476    4.365    4.219    4.265    4.451    4.464    4.480    4.109    4.331    4.037    4.113    3.979    4.265    3.977    4.043    4.088    4.043    3.615    3.505 
DATE 2017:080:18:27:18 obsn 144 az 291 el 48 freq_MHz  1413.0000 Tsys 175.088 Tant 15.679 vlsr  -26.99 glat  0.880 glon 76.965 azoff 0.00 eloff 0.00 source CygnusX 
Fstart 1411.997 fstop 1414.003 spacing 0.009375 bw    2.400 fbw    2.000 MHz nfreq 256 nsam 5242880 npoint 214 integ   452 sigma    0.170 bsw 42
Spectrum    414 integration periods
   6.581    6.630    6.763    6.522    6.688    6.156    6.952    6.375    6.146    6.325    6.210    6.510    6.360    6.294    6.318    6.242    6.297    6.720    6.245    6.240    6.370    6.378    6.741    6.518    6.541    6.518    6.412    6.288    6.373    6.563    6.389    6.352    6.620    6.369    6.062    6.185    6.024    6.273    6.093    6.235    6.178    5.929    6.132    6.159    5.916    6.023    6.218    6.244    6.235    6.091    6.096    6.213    5.754    5.898    6.089    6.234    6.059    6.082    6.232    6.118    5.928    6.002    5.893    5.964    5.657    6.125    6.097    6.421    6.126    6.165    5.865    5.969    5.941    5.762    5.986    6.010    5.621    5.559    5.888    5.890    5.642    5.910    5.678    5.678    5.815    5.638    5.804    5.852    5.660    5.630    5.576    5.667    5.769    5.727    5.699    5.696    5.637    5.492    5.427    5.614    5.488    5.439    5.160    5.290    5.373    5.667    5.194    5.401    5.634    5.278    5.393    5.615    4.891    5.291    5.005    5.154    4.899    5.193    5.204    5.285    5.286    5.067    5.272    5.133    5.383    4.854    4.904    4.974    5.078    5.005    4.893    5.283    4.933    4.760    4.922    5.089    4.989    5.032    4.791    4.879    4.877    5.111    4.904    4.727    4.882    4.718    4.680    4.673    5.018    4.734    4.475    4.835    4.634    4.390    4.746    4.696    4.627    4.866    4.706    4.657    4.890    4.468    4.712    4.509    4.543    4.846    4.535    4.464    3.932    4.524    4.295    4.452    4.140    4.104    4.296    4.055    4.032    4.446    4.171    4.370    4.089    4.710    4.446    3.816    4.204    4.621    4.209    4.270    4.216    4.143    4.284    4.301    4.354    4.325    4.195    4.357    4.251    4.133    4.198    4.342    4.408    4.445    3.992    4.287    3.943    4.078    3.892    4.169    3.911    3.921    4.073    3.970    3.550    3.416 
DATE 2017:080:18:27:45 obsn 145 az 284 el 48 freq_MHz  1413.0000 Tsys 175.088 Tant 12.316 vlsr  -26.99 glat  0.880 glon 76.965 azoff -7.46 eloff 0.00 source CygnusX 
Fstart 1411.997 fstop 1414.003 spacing 0.009375 bw    2.400 fbw    2.000 MHz nfreq 256 nsam 5242880 npoint 214 integ   463 sigma    0.168 bsw 43
Spectrum    424 integration periods
   6.425    6.452    6.591    6.309    6.478    5.994    6.755    6.093    5.944    6.079    6.004    6.341    6.167    6.106    6.134    6.004    6.093    6.545    6.058    6.029    6.194    6.144    6.536    6.298    6.334    6.300    6.214    6.088    6.152    6.363    6.192    6.162    6.381    6.219    5.900    6.041    5.850    6.074    5.898    6.069    5.989    5.783    5.954    6.006    5.751    5.826    6.024    6.081    6.038    5.916    5.886    6.033    5.554    5.687    5.927    6.045    5.878    5.886    6.057    5.955    5.763    5.823    5.697    5.748    5.470    5.945    5.921    6.253    5.955    6.005    5.636    5.783    5.797    5.615    5.846    5.859    5.499    5.359    5.689    5.698    5.456    5.668    5.510    5.514    5.599    5.394    5.634    5.688    5.504    5.472    5.367    5.484    5.555    5.537    5.570    5.515    5.434    5.335    5.266    5.435    5.298    5.269    4.989    5.159    5.178    5.519    5.026    5.201    5.483    5.106    5.196    5.433    4.704    5.143    4.870    4.975    4.712    4.968    5.040    5.114    5.105    4.871    5.095    4.989    5.241    4.660    4.720    4.841    4.944    4.816    4.721    5.163    4.765    4.610    4.771    4.943    4.852    4.844    4.624    4.737    4.715    4.926    4.770    4.547    4.711    4.585    4.538    4.537    4.873    4.576    4.357    4.729    4.456    4.261    4.591    4.510    4.471    4.693    4.549    4.504    4.662    4.325    4.504    4.359    4.375    4.719    4.358    4.281    3.776    4.328    4.104    4.290    4.000    3.860    4.146    3.873    3.854    4.278    3.983    4.245    3.931    4.523    4.283    3.663    4.045    4.459    4.051    4.093    4.067    3.971    4.085    4.110    4.179    4.149    4.086    4.182    4.078    3.997    4.054    4.134    4.279    4.272    3.846    4.135    3.811    3.944    3.748    4.012    3.789    3.767    3.929    3.834    3.382    3.323 
DATE 2017:080:18:28:09 obsn 146 az 291 el 48 freq_MHz  1413.0000 Tsys 175.088 Tant 16.167 vlsr  -26.99 glat  0.880 glon 76.965 azoff 0.00 eloff 0.00 source CygnusX 
Fstart 1411.997 fstop 1414.003 spacing 0.009375 bw    2.400 fbw    2.000 MHz nfreq 256 nsam 5242880 npoint 214 integ   474 sigma    0.166 bsw 44
Spectrum    434 integration periods
   6.492    6.540    6.660    6.370    6.505    6.073    6.794    6.140    5.974    6.134    6.092    6.347    6.231    6.174    6.178    6.059    6.130    6.537    6.066    6.070    6.198    6.145    6.574    6.342    6.341    6.385    6.268    6.118    6.173    6.403    6.209    6.214    6.403    6.275    5.957    6.046    5.825    6.128    5.972    6.122    6.062    5.826    5.996    6.040    5.785    5.914    6.083    6.066    6.094    5.970    5.932    6.050    5.613    5.735    5.963    6.063    5.956    5.944    6.111    5.983    5.810    5.849    5.741    5.808    5.504    6.007    5.975    6.324    6.011    6.049    5.667    5.827    5.831    5.647    5.940    5.854    5.556    5.417    5.740    5.716    5.509    5.709    5.532    5.560    5.660    5.424    5.733    5.706    5.557    5.522    5.419    5.560    5.563    5.583    5.595    5.527    5.481    5.343    5.301    5.524    5.359    5.308    5.056    5.201    5.245    5.529    5.087    5.215    5.477    5.126    5.287    5.393    4.749    5.186    4.958    5.052    4.777    5.028    5.106    5.159    5.154    4.861    5.150    4.995    5.247    4.745    4.763    4.880    4.977    4.853    4.748    5.189    4.771    4.649    4.842    4.949    4.902    4.902    4.710    4.803    4.703    4.970    4.782    4.555    4.775    4.606    4.603    4.550    4.929    4.570    4.384    4.790    4.533    4.317    4.648    4.573    4.528    4.660    4.592    4.509    4.749    4.334    4.555    4.414    4.433    4.758    4.377    4.315    3.832    4.341    4.137    4.345    4.053    3.883    4.146    3.930    3.871    4.342    4.028    4.295    3.986    4.573    4.331    3.771    4.104    4.464    4.074    4.150    4.174    4.044    4.153    4.167    4.195    4.226    4.118    4.217    4.149    4.017    4.106    4.151    4.342    4.277    3.914    4.171    3.845    3.973    3.788    4.051    3.840    3.842    3.962    3.858    3.382    3.415 
DATE 2017:080:18:28:33 obsn 147 az 299 el 48 freq_MHz  1413.0000 Tsys 175.088 Tant 17.520 vlsr  -26.99 glat  0.880 glon 76.965 azoff 7.44 eloff 0.00 source CygnusX 
Fstart 1411.997 fstop 1414.003 spacing 0.009375 bw    2.400 fbw    2.000 MHz nfreq 256 nsam 5242880 npoint 214 integ   485 sigma    0.164 bsw 45
Spectrum    444 integration periods
 192.397  190.396  189.452  189.675  189.095  189.180  189.390  189.964  189.748  189.719  189.607  189.759  189.737  189.572  189.725  189.885  189.763  189.765  189.786  189.766  190.020  190.067  189.808  190.014  190.676  190.075  190.124  190.529  190.449  191.046  190.691  190.680  190.612  190.717  190.818  190.752  190.641  190.770  191.175  190.941  191.031  191.572  191.167  191.284  191.280  191.291  191.749  191.279  191.460  191.429  192.003  191.793  191.608  191.706  191.750  191.823  191.532  191.649  191.707  191.620  191.617  191.777  191.969  192.246  192.134  191.893  192.065  192.598  191.947  192.229  192.257  192.708  192.339  192.662  192.326  192.365  192.538  192.334  192.501  192.552  192.330  192.775  192.809  192.819  193.200  192.903  192.922  192.879  193.653  193.147  193.559  193.306  193.600  193.259  193.245  193.079  193.389  193.245  192.966  193.357  193.353  193.488  193.413  193.492  193.483  193.895  193.663  193.804  193.837  194.055  194.154  193.664  193.845  193.907  194.012  193.857  193.842  194.131  193.894  193.884  194.243  194.013  194.155  194.427  194.464  194.159  194.502  194.881  194.698  194.502  194.470  194.925  194.312  194.612  194.277  194.474  194.270  194.350  194.144  194.538  194.222  194.333  194.278  194.533  194.714  194.470  194.367  194.381  194.818  194.425  194.529  194.328  194.871  194.665  194.341  194.604  194.374  194.544  194.237  194.533  194.574  194.383  194.411  194.481  194.414  195.045  194.657  194.345  194.466  194.922  194.477  194.577  194.306  194.262  194.483  193.977  194.256  194.250  194.197  194.122  193.982  193.977  194.592  194.027  193.998  193.894  194.469  193.905  193.917  193.947  194.128  193.900  193.782  193.824  193.754  193.913  193.937  194.211  194.140  194.317  194.136  194.403  194.565  194.903  194.582  194.561  194.701  194.619  194.340  193.977  194.043  193.770  195.132  194.781 
DATE 2017:080:18:28:46 obsn 148 az 299 el 48 freq_MHz  1413.0000 Tsys 175.088 Tant 15.530 vlsr  -26.99 glat  0.880 glon 76.965 azoff 7.44 eloff 0.00 source CygnusX 
Fstart 1411.997 fstop 1414.003 spacing 0.009375 bw    2.400 fbw    2.000 MHz nfreq 256 nsam 5242880 npoint 214 integ   496 sigma    0.162 bsw 45
Spectrum    454 integration periods
   6.258    6.298    6.468    6.226    6.353    5.858    6.664    5.904    5.769    6.004    5.910    6.144    6.044    5.978    6.023    5.898    5.899    6.390    5.937    5.975    6.067    6.003    6.369    6.167    6.174    6.225    6.065    5.955    6.008    6.208    6.027    6.073    6.233    6.095    5.778    5.873    5.667    5.973    5.809    6.011    5.973    5.726    5.794    5.899    5.638    5.738    5.922    5.921    5.916    5.765    5.741    5.928    5.522    5.556    5.788    5.940    5.732    5.751    5.962    5.833    5.670    5.712    5.631    5.646    5.298    5.817    5.772    6.105    5.829    5.845    5.418    5.735    5.728    5.480    5.738    5.721    5.355    5.203    5.576    5.547    5.265    5.551    5.379    5.356    5.531    5.291    5.620    5.523    5.419    5.387    5.207    5.400    5.383    5.410    5.450    5.357    5.348    5.155    5.127    5.289    5.203    5.121    4.887    5.097    5.068    5.353    4.870    5.089    5.297    5.004    5.130    5.237    4.580    4.982    4.785    4.850    4.641    4.856    4.941    4.927    4.962    4.663    4.986    4.794    5.091    4.600    4.610    4.736    4.787    4.675    4.615    4.966    4.665    4.492    4.609    4.805    4.728    4.759    4.498    4.651    4.552    4.815    4.657    4.349    4.651    4.478    4.476    4.352    4.769    4.433    4.189    4.604    4.332    4.131    4.407    4.406    4.400    4.480    4.413    4.329    4.600    4.209    4.362    4.242    4.303    4.560    4.226    4.161    3.705    4.084    4.011    4.166    3.912    3.756    4.004    3.765    3.755    4.182    3.866    4.095    3.857    4.388    4.131    3.606    3.930    4.239    3.902    3.953    4.021    3.894    4.031    4.010    4.031    4.051    3.927    4.058    3.984    3.856    3.939    3.984    4.122    4.066    3.761    3.985    3.658    3.837    3.595    3.903    3.671    3.652    3.784    3.704    3.241    3.304 
DATE 2017:080:18:29:15 obsn 149 az 291 el 48 freq_MHz  1413.0000 Tsys 175.088 Tant 15.198 vlsr  -26.99 glat  0.880 glon 76.965 azoff 0.00 eloff 0.00 source CygnusX 
Fstart 1411.997 fstop 1414.003 spacing 0.009375 bw    2.400 fbw    2.000 MHz nfreq 256 nsam 5242880 npoint 214 integ   507 sigma    0.161 bsw 46
Spectrum    464 integration periods
   6.099    6.146    6.354    6.075    6.167    5.711    6.515    5.768    5.604    5.841    5.753    5.981    5.910    5.839    5.884    5.743    5.716    6.260    5.806    5.817    5.918    5.842    6.198    6.027    5.992    6.048    5.935    5.790    5.803    6.050    5.889    5.892    6.082    5.980    5.635    5.768    5.493    5.835    5.644    5.851    5.799    5.525    5.603    5.723    5.460    5.600    5.775    5.768    5.772    5.663    5.611    5.786    5.360    5.417    5.675    5.746    5.570    5.602    5.786    5.708    5.487    5.567    5.511    5.494    5.154    5.644    5.583    5.959    5.686    5.687    5.254    5.546    5.562    5.304    5.621    5.561    5.237    5.066    5.412    5.413    5.155    5.401    5.245    5.201    5.382    5.139    5.464    5.367    5.290    5.254    5.027    5.234    5.231    5.199    5.317    5.245    5.187    4.981    4.970    5.128    5.014    4.967    4.754    4.962    4.955    5.227    4.736    4.973    5.194    4.876    4.979    5.115    4.468    4.828    4.702    4.733    4.490    4.688    4.845    4.806    4.828    4.502    4.828    4.610    4.936    4.465    4.487    4.588    4.619    4.553    4.481    4.832    4.528    4.346    4.451    4.662    4.583    4.658    4.368    4.493    4.392    4.674    4.512    4.298    4.494    4.349    4.332    4.229    4.648    4.273    4.072    4.457    4.246    4.000    4.306    4.269    4.270    4.349    4.282    4.223    4.459    4.084    4.214    4.111    4.164    4.420    4.137    3.998    3.606    3.971    3.882    4.063    3.793    3.646    3.887    3.620    3.585    4.049    3.671    3.983    3.722    4.300    3.986    3.526    3.836    4.111    3.750    3.778    3.868    3.728    3.895    3.841    3.935    3.913    3.777    3.951    3.894    3.741    3.817    3.890    3.970    3.969    3.659    3.814    3.559    3.647    3.481    3.808    3.518    3.590    3.674    3.615    3.073    3.154 
DATE 2017:080:18:29:36 obsn 150 az 284 el 48 freq_MHz  1413.0000 Tsys 175.088 Tant 15.552 vlsr  -26.99 glat  0.880 glon 76.965 azoff -7.42 eloff 0.00 source CygnusX 
Fstart 1411.997 fstop 1414.003 spacing 0.009375 bw    2.400 fbw    2.000 MHz nfreq 256 nsam 5242880 npoint 214 integ   518 sigma    0.159 bsw 47
Spectrum    474 integration periods
   6.173    6.180    6.436    6.116    6.234    5.775    6.541    5.881    5.698    5.889    5.848    6.021    5.977    5.945    5.947    5.864    5.794    6.366    5.869    5.869    6.014    5.929    6.217    6.075    6.023    6.111    6.031    5.851    5.857    6.122    5.999    5.943    6.107    6.052    5.722    5.838    5.545    5.908    5.683    5.868    5.877    5.646    5.703    5.808    5.526    5.678    5.829    5.784    5.836    5.743    5.716    5.845    5.423    5.527    5.705    5.817    5.662    5.680    5.856    5.778    5.556    5.606    5.574    5.549    5.229    5.697    5.679    6.046    5.749    5.747    5.332    5.642    5.630    5.424    5.633    5.630    5.325    5.134    5.529    5.501    5.216    5.466    5.319    5.281    5.433    5.162    5.495    5.429    5.389    5.320    5.057    5.346    5.280    5.224    5.405    5.341    5.261    5.050    5.046    5.198    5.083    5.024    4.839    5.034    4.978    5.255    4.823    5.006    5.264    4.906    5.014    5.156    4.550    4.877    4.736    4.813    4.501    4.734    4.862    4.872    4.850    4.539    4.906    4.667    4.970    4.543    4.559    4.682    4.694    4.630    4.554    4.921    4.597    4.423    4.508    4.669    4.615    4.700    4.435    4.602    4.435    4.762    4.575    4.373    4.568    4.435    4.376    4.256    4.684    4.352    4.140    4.521    4.304    4.031    4.322    4.323    4.305    4.405    4.343    4.335    4.520    4.142    4.266    4.142    4.252    4.479    4.205    4.045    3.696    4.055    3.950    4.114    3.894    3.698    4.002    3.718    3.620    4.124    3.721    4.060    3.774    4.350    4.043    3.575    3.886    4.166    3.826    3.861    3.906    3.764    3.928    3.898    3.971    3.956    3.823    4.031    3.980    3.829    3.914    3.945    3.996    4.022    3.728    3.913    3.627    3.656    3.547    3.828    3.637    3.658    3.760    3.670    3.130    3.207 
DATE 2017:080:18:30:08 obsn 151 az 291 el 47 freq_MHz  1413.0000 Tsys 175.088 Tant 15.508 vlsr  -26.99 glat  0.880 glon 76.965 azoff 0.00 eloff 0.00 source CygnusX 
Fstart 1411.997 fstop 1414.003 spacing 0.009375 bw    2.400 fbw    2.000 MHz nfreq 256 nsam 5242880 npoint 214 integ   529 sigma    0.157 bsw 48
Spectrum    484 integration periods
   5.988    5.972    6.259    5.905    6.090    5.600    6.327    5.721    5.489    5.716    5.668    5.859    5.803    5.763    5.811    5.712    5.601    6.175    5.700    5.732    5.882    5.798    6.050    5.860    5.858    5.996    5.847    5.659    5.678    5.970    5.790    5.780    5.932    5.881    5.587    5.654    5.402    5.755    5.516    5.697    5.721    5.472    5.511    5.616    5.332    5.482    5.667    5.651    5.676    5.565    5.507    5.653    5.270    5.401    5.570    5.635    5.507    5.560    5.704    5.616    5.394    5.431    5.437    5.367    5.061    5.520    5.489    5.888    5.563    5.607    5.182    5.494    5.465    5.276    5.443    5.498    5.175    4.954    5.314    5.357    5.072    5.328    5.144    5.082    5.243    5.003    5.362    5.349    5.199    5.187    4.902    5.194    5.077    5.107    5.287    5.212    5.111    4.957    4.936    5.041    4.936    4.853    4.692    4.895    4.896    5.117    4.677    4.879    5.125    4.754    4.891    5.026    4.370    4.742    4.600    4.665    4.377    4.573    4.720    4.704    4.708    4.419    4.770    4.544    4.839    4.390    4.426    4.543    4.497    4.453    4.447    4.759    4.463    4.326    4.402    4.530    4.464    4.566    4.320    4.430    4.334    4.678    4.472    4.249    4.448    4.280    4.289    4.140    4.549    4.230    4.014    4.376    4.211    3.983    4.169    4.211    4.174    4.218    4.219    4.175    4.406    4.025    4.091    4.031    4.121    4.381    4.033    3.912    3.574    3.943    3.821    3.976    3.762    3.579    3.879    3.599    3.494    4.024    3.624    3.959    3.642    4.242    3.916    3.446    3.789    4.012    3.710    3.772    3.816    3.614    3.801    3.773    3.830    3.837    3.681    3.905    3.842    3.727    3.792    3.805    3.843    3.880    3.598    3.765    3.539    3.527    3.400    3.710    3.524    3.527    3.644    3.550    3.001    3.052 
DATE 2017:080:18:30:32 obsn 152 az 299 el 47 freq_MHz  1413.0000 Tsys 175.088 Tant 14.413 vlsr  -26.99 glat  0.880 glon 76.965 azoff 7.39 eloff 0.00 source CygnusX 
Fstart 1411.997 fstop 1414.003 spacing 0.009375 bw    2.400 fbw    2.000 MHz nfreq 256 nsam 5242880 npoint 214 integ   540 sigma    0.156 bsw 49
Spectrum    494 integration periods
   5.987    5.958    6.263    5.931    6.079    5.609    6.343    5.754    5.534    5.712    5.675    5.871    5.815    5.744    5.872    5.755    5.609    6.189    5.718    5.758    5.874    5.769    6.072    5.870    5.885    6.008    5.850    5.653    5.732    5.965    5.834    5.808    5.920    5.904    5.572    5.629    5.401    5.738    5.549    5.703    5.693    5.478    5.509    5.580    5.324    5.513    5.660    5.647    5.670    5.570    5.478    5.688    5.313    5.428    5.561    5.647    5.543    5.553    5.673    5.582    5.369    5.421    5.441    5.341    5.047    5.545    5.481    5.866    5.556    5.588    5.185    5.477    5.465    5.320    5.433    5.474    5.192    4.969    5.316    5.338    5.069    5.339    5.134    5.072    5.264    5.022    5.336    5.371    5.196    5.165    4.949    5.168    5.065    5.101    5.267    5.187    5.119    4.964    4.941    5.054    4.924    4.839    4.718    4.895    4.891    5.169    4.724    4.819    5.138    4.779    4.881    5.003    4.382    4.741    4.553    4.657    4.352    4.634    4.721    4.658    4.709    4.427    4.766    4.574    4.834    4.414    4.432    4.546    4.477    4.492    4.414    4.808    4.414    4.341    4.407    4.512    4.448    4.578    4.373    4.439    4.334    4.651    4.457    4.234    4.439    4.282    4.272    4.128    4.531    4.209    4.026    4.321    4.154    3.936    4.169    4.223    4.189    4.217    4.221    4.131    4.406    4.036    4.075    4.019    4.106    4.367    4.048    3.902    3.601    3.941    3.838    3.973    3.738    3.590    3.904    3.623    3.504    4.037    3.654    3.970    3.652    4.214    3.961    3.477    3.793    4.007    3.735    3.794    3.820    3.641    3.781    3.764    3.874    3.874    3.715    3.940    3.816    3.735    3.815    3.807    3.814    3.870    3.597    3.808    3.580    3.537    3.437    3.736    3.545    3.509    3.691    3.555    3.002    3.060 
DATE 2017:080:18:31:02 obsn 153 az 291 el 47 freq_MHz  1413.0000 Tsys 175.088 Tant 14.053 vlsr  -26.99 glat  0.880 glon 76.965 azoff 0.00 eloff 0.00 source CygnusX 
Fstart 1411.997 fstop 1414.003 spacing 0.009375 bw    2.400 fbw    2.000 MHz nfreq 256 nsam 5242880 npoint 214 integ   551 sigma    0.154 bsw 50
Spectrum    504 integration periods
   5.772    5.755    6.012    5.697    5.893    5.405    6.128    5.586    5.310    5.541    5.521    5.665    5.600    5.568    5.664    5.567    5.379    5.971    5.516    5.583    5.653    5.564    5.857    5.643    5.679    5.783    5.630    5.402    5.545    5.739    5.585    5.568    5.712    5.693    5.383    5.421    5.216    5.545    5.366    5.531    5.476    5.239    5.307    5.384    5.152    5.321    5.438    5.433    5.436    5.326    5.257    5.479    5.125    5.204    5.317    5.461    5.359    5.302    5.468    5.355    5.164    5.204    5.208    5.136    4.849    5.346    5.319    5.664    5.352    5.418    4.995    5.333    5.278    5.119    5.254    5.261    4.992    4.776    5.106    5.120    4.868    5.121    4.920    4.885    5.083    4.819    5.125    5.188    4.998    4.999    4.766    4.958    4.875    4.901    5.048    4.982    4.921    4.822    4.759    4.863    4.711    4.646    4.528    4.720    4.713    4.967    4.580    4.592    4.954    4.581    4.670    4.798    4.172    4.553    4.371    4.509    4.165    4.413    4.547    4.462    4.547    4.236    4.616    4.428    4.615    4.218    4.228    4.378    4.290    4.331    4.246    4.589    4.234    4.174    4.203    4.309    4.280    4.393    4.210    4.266    4.193    4.459    4.299    4.088    4.261    4.085    4.121    3.960    4.337    4.039    3.864    4.139    3.955    3.759    3.990    4.074    3.986    4.019    4.062    3.943    4.263    3.877    3.900    3.822    3.919    4.167    3.890    3.765    3.482    3.755    3.654    3.794    3.544    3.406    3.721    3.455    3.302    3.880    3.453    3.745    3.491    4.024    3.754    3.316    3.611    3.872    3.571    3.656    3.652    3.479    3.648    3.636    3.689    3.734    3.610    3.786    3.659    3.592    3.675    3.662    3.682    3.681    3.418    3.644    3.434    3.336    3.280    3.570    3.413    3.327    3.536    3.385    2.801    2.922 
DATE 2017:080:18:31:23 obsn 154 az 284 el 47 freq_MHz  1413.0000 Tsys 175.088 Tant 11.060 vlsr  -26.99 glat  0.880 glon 76.965 azoff -7.37 eloff 0.00 source CygnusX 
Fstart 1411.997 fstop 1414.003 spacing 0.009375 bw    2.400 fbw    2.000 MHz nfreq 256 nsam 5242880 npoint 214 integ   561 sigma    0.153 bsw 51
Spectrum    514 integration periods
   5.800    5.847    6.087    5.779    5.959    5.474    6.225    5.680    5.416    5.646    5.620    5.739    5.665    5.617    5.753    5.653    5.473    6.043    5.609    5.685    5.753    5.645    5.935    5.735    5.731    5.913    5.716    5.471    5.637    5.808    5.710    5.652    5.789    5.754    5.460    5.515    5.316    5.627    5.479    5.638    5.574    5.305    5.372    5.436    5.226    5.375    5.519    5.537    5.515    5.398    5.361    5.535    5.229    5.316    5.399    5.555    5.433    5.369    5.509    5.421    5.230    5.241    5.244    5.230    4.955    5.433    5.386    5.689    5.380    5.456    5.084    5.406    5.359    5.201    5.343    5.365    5.037    4.865    5.193    5.159    4.920    5.208    5.038    4.989    5.199    4.872    5.200    5.250    5.075    5.039    4.792    5.056    4.938    4.965    5.130    5.085    5.019    4.903    4.803    4.903    4.815    4.717    4.609    4.811    4.802    5.056    4.662    4.677    5.029    4.602    4.745    4.825    4.226    4.630    4.476    4.562    4.264    4.484    4.611    4.535    4.645    4.326    4.695    4.536    4.701    4.294    4.312    4.444    4.369    4.425    4.279    4.657    4.273    4.251    4.239    4.386    4.304    4.435    4.324    4.337    4.254    4.511    4.342    4.152    4.353    4.183    4.194    4.037    4.372    4.118    3.957    4.236    4.012    3.849    4.064    4.125    4.062    4.124    4.140    4.019    4.337    3.988    3.960    3.950    4.012    4.212    3.980    3.804    3.549    3.810    3.704    3.838    3.603    3.497    3.815    3.497    3.379    3.956    3.537    3.815    3.578    4.114    3.841    3.451    3.745    4.010    3.659    3.756    3.787    3.537    3.738    3.714    3.760    3.824    3.691    3.887    3.772    3.650    3.779    3.734    3.768    3.761    3.485    3.672    3.518    3.399    3.334    3.656    3.524    3.411    3.600    3.473    2.875    2.990 
DATE 2017:080:18:31:47 obsn 155 az 291 el 47 freq_MHz  1413.0000 Tsys 175.088 Tant 14.110 vlsr  -26.99 glat  0.880 glon 76.965 azoff 0.00 eloff 0.00 source CygnusX 
Fstart 1411.997 fstop 1414.003 spacing 0.009375 bw    2.400 fbw    2.000 MHz nfreq 256 nsam 5242880 npoint 214 integ   572 sigma    0.151 bsw 52
Spectrum    524 integration periods
   5.643    5.683    5.954    5.600    5.799    5.322    6.034    5.489    5.256    5.487    5.498    5.605    5.477    5.462    5.587    5.510    5.338    5.868    5.434    5.523    5.580    5.498    5.812    5.543    5.520    5.734    5.532    5.332    5.472    5.619    5.566    5.502    5.647    5.574    5.298    5.328    5.146    5.446    5.344    5.506    5.399    5.156    5.197    5.280    5.070    5.242    5.336    5.381    5.326    5.204    5.190    5.382    5.064    5.175    5.226    5.397    5.264    5.213    5.362    5.245    5.084    5.113    5.079    5.084    4.834    5.294    5.260    5.524    5.250    5.300    4.943    5.166    5.196    5.064    5.195    5.212    4.870    4.721    5.068    5.011    4.743    5.058    4.905    4.843    5.063    4.728    5.049    5.095    4.901    4.890    4.650    4.853    4.779    4.832    4.965    4.900    4.894    4.745    4.685    4.737    4.684    4.553    4.471    4.691    4.646    4.881    4.518    4.540    4.851    4.469    4.620    4.656    4.089    4.470    4.344    4.431    4.137    4.325    4.451    4.414    4.526    4.190    4.539    4.409    4.570    4.187    4.184    4.323    4.241    4.278    4.153    4.522    4.148    4.147    4.120    4.291    4.146    4.283    4.184    4.211    4.156    4.373    4.226    4.012    4.223    4.030    4.026    3.879    4.221    3.978    3.786    4.104    3.857    3.724    3.978    3.985    3.897    4.048    4.017    3.868    4.192    3.870    3.858    3.842    3.908    4.074    3.884    3.694    3.439    3.661    3.576    3.689    3.520    3.336    3.707    3.420    3.302    3.848    3.430    3.725    3.475    4.000    3.664    3.315    3.612    3.872    3.505    3.661    3.677    3.429    3.614    3.609    3.639    3.718    3.549    3.742    3.650    3.519    3.651    3.592    3.659    3.657    3.375    3.529    3.398    3.268    3.235    3.530    3.440    3.324    3.464    3.378    2.759    2.871 
DATE 2017:080:18:32:10 obsn 156 az 299 el 47 freq_MHz  1413.0000 Tsys 175.088 Tant 14.165 vlsr  -26.99 glat  0.880 glon 76.965 azoff 7.35 eloff 0.00 source CygnusX 
Fstart 1411.997 fstop 1414.003 spacing 0.009375 bw    2.400 fbw    2.000 MHz nfreq 256 nsam 5242880 npoint 214 integ   583 sigma    0.150 bsw 53
Spectrum    534 integration periods
   5.595    5.638    5.903    5.572    5.750    5.293    5.976    5.460    5.244    5.431    5.471    5.576    5.433    5.423    5.569    5.486    5.324    5.800    5.416    5.501    5.562    5.453    5.795    5.526    5.524    5.682    5.511    5.331    5.422    5.567    5.553    5.475    5.635    5.537    5.275    5.292    5.126    5.410    5.296    5.439    5.353    5.112    5.174    5.274    5.052    5.220    5.291    5.354    5.270    5.138    5.168    5.338    5.029    5.145    5.193    5.351    5.187    5.165    5.358    5.271    5.065    5.074    5.041    5.065    4.811    5.274    5.252    5.477    5.219    5.241    4.903    5.092    5.112    4.992    5.117    5.181    4.853    4.665    5.000    4.953    4.694    4.996    4.851    4.791    5.023    4.721    5.019    5.080    4.870    4.867    4.637    4.816    4.697    4.792    4.934    4.872    4.868    4.740    4.646    4.695    4.660    4.511    4.435    4.686    4.627    4.807    4.475    4.504    4.813    4.404    4.563    4.634    4.068    4.442    4.322    4.442    4.117    4.291    4.421    4.365    4.490    4.173    4.475    4.350    4.575    4.165    4.146    4.283    4.196    4.236    4.114    4.484    4.110    4.119    4.095    4.272    4.112    4.231    4.130    4.158    4.117    4.303    4.184    3.969    4.160    4.028    4.004    3.866    4.181    3.997    3.762    4.054    3.827    3.663    3.947    3.944    3.864    4.049    3.962    3.899    4.157    3.846    3.825    3.782    3.844    4.017    3.856    3.690    3.422    3.634    3.530    3.665    3.495    3.293    3.731    3.396    3.278    3.825    3.423    3.698    3.451    3.981    3.624    3.285    3.608    3.842    3.500    3.666    3.652    3.432    3.589    3.605    3.629    3.721    3.535    3.733    3.612    3.498    3.602    3.545    3.630    3.669    3.350    3.491    3.351    3.219    3.220    3.492    3.382    3.296    3.398    3.364    2.724    2.883 
DATE 2017:080:18:32:40 obsn 157 az 291 el 47 freq_MHz  1413.0000 Tsys 175.088 Tant 13.093 vlsr  -26.99 glat  0.880 glon 76.965 azoff 0.00 eloff 0.00 source CygnusX 
Fstart 1411.997 fstop 1414.003 spacing 0.009375 bw    2.400 fbw    2.000 MHz nfreq 256 nsam 5242880 npoint 214 integ   594 sigma    0.148 bsw 54
Spectrum    544 integration periods
   5.434    5.461    5.733    5.415    5.613    5.164    5.869    5.311    5.112    5.245    5.287    5.394    5.280    5.268    5.415    5.339    5.172    5.643    5.248    5.377    5.449    5.279    5.631    5.353    5.318    5.500    5.336    5.155    5.266    5.419    5.390    5.310    5.476    5.362    5.133    5.118    4.962    5.246    5.128    5.282    5.189    4.935    5.015    5.134    4.901    5.108    5.092    5.147    5.123    4.976    5.021    5.220    4.890    4.972    5.036    5.215    5.022    5.042    5.222    5.062    4.935    4.904    4.895    4.929    4.676    5.117    5.093    5.296    5.075    5.095    4.798    4.951    4.915    4.831    4.998    5.029    4.711    4.495    4.813    4.809    4.549    4.835    4.693    4.671    4.878    4.547    4.881    4.910    4.703    4.733    4.493    4.708    4.550    4.646    4.777    4.729    4.705    4.598    4.495    4.575    4.535    4.361    4.313    4.541    4.486    4.646    4.323    4.319    4.696    4.263    4.393    4.482    3.933    4.300    4.177    4.284    4.004    4.150    4.305    4.232    4.341    4.043    4.355    4.201    4.418    4.057    3.958    4.138    4.075    4.097    3.975    4.339    3.999    3.990    4.014    4.107    3.970    4.089    3.991    4.039    3.991    4.142    4.039    3.834    4.020    3.886    3.843    3.729    4.078    3.890    3.652    3.922    3.709    3.526    3.789    3.822    3.709    3.898    3.794    3.767    3.998    3.732    3.677    3.645    3.709    3.856    3.744    3.539    3.293    3.532    3.461    3.524    3.361    3.147    3.605    3.269    3.203    3.687    3.332    3.540    3.305    3.818    3.508    3.194    3.503    3.750    3.384    3.550    3.508    3.340    3.446    3.473    3.531    3.589    3.411    3.623    3.485    3.355    3.475    3.421    3.496    3.545    3.228    3.392    3.235    3.084    3.109    3.385    3.246    3.236    3.318    3.243    2.626    2.790 
