DATE 2017:045:05:22:04 obsn  38 az 191 el 27 freq_MHz  1420.3060 Tsys 138.000 Tant 43.819 vlsr   27.82 glat -4.930 glon 239.466 source VYCma 
Fstart 1419.303 fstop 1421.309 spacing 0.009375 bw    2.400 fbw    2.000 MHz nfreq 256 nsam 5242880 npoint 214 integ     1 sigma    2.727 bsw 3
Spectrum      1 integration periods
 171.664  171.704  172.892  171.415  168.860  171.584  172.800  170.908  169.425  168.953  173.832  168.365  171.340  170.747  173.567  170.399  172.126  170.675  172.975  172.422  173.644  171.814  170.561  173.889  172.435  170.473  174.609  174.841  171.153  172.270  173.974  173.092  176.746  177.011  180.269  176.398  176.603  175.028  176.632  177.903  177.929  178.994  179.383  177.876  178.307  180.672  179.439  179.845  182.428  183.674  180.366  182.602  180.870  181.328  181.714  183.649  183.071  183.374  183.444  185.093  187.959  193.560  196.814  200.563  205.381  204.509  205.805  211.058  201.797  199.552  198.101  197.819  195.071  200.070  194.165  197.196  198.153  194.362  193.240  190.984  194.349  191.980  178.674  180.584  180.703  176.676  176.400  174.652  175.749  173.664  177.527  176.490  179.527  179.663  182.332  190.869  195.848  207.513  216.903  225.452  222.161  220.885  210.620  202.198  193.378  190.442  186.966  183.565  180.607  182.939  178.458  178.872  179.525  175.708  173.319  177.413  175.553  176.321  173.872  172.819  175.942  176.779  175.399  173.696  175.275  174.402  172.938  175.615  176.597  175.343  173.762  175.493  175.544  176.487  175.098  174.600  178.290  177.703  177.686  176.082  177.134  177.604  174.686  178.461  177.559  180.677  173.343  177.529  176.373  175.298  177.251  174.710  176.266  177.616  172.860  176.074  176.796  179.736  179.274  175.557  178.347  176.768  173.626  178.153  177.772  174.307  179.586  176.415  175.707  180.472  178.271  178.791  175.841  178.117  178.275  176.758  176.427  177.427  180.624  181.170  179.358  181.067  179.959  180.022  183.178  182.417  182.997  182.365  181.223  185.133  184.304  184.819  181.185  186.528  188.516  183.029  181.813  185.527  181.958  181.932  181.496  182.147  181.333  180.667  179.839  177.115  181.213  179.271  179.038  180.914  179.205  183.818  182.951  179.751 
DATE 2017:045:05:22:26 obsn  39 az 196 el 27 freq_MHz  1420.3060 Tsys 138.000 Tant 42.105 vlsr   27.82 glat -4.930 glon 239.466 source VYCma 
Fstart 1419.303 fstop 1421.309 spacing 0.009375 bw    2.400 fbw    2.000 MHz nfreq 256 nsam 5242880 npoint 214 integ    12 sigma    0.822 bsw 4
Spectrum     11 integration periods
   1.889    1.125    2.144    2.080    0.058   -0.508    0.107   -1.584   -0.510   -0.076   -0.747    2.149   -0.430    0.797   -0.179    0.858   -0.203   -0.054    0.653    2.565    0.302    0.566   -0.343    0.771    0.952    0.009   -1.876   -1.522    0.939   -0.520    1.676    0.406   -0.057    0.300    1.604   -0.310   -2.175    1.832    2.917    1.440   -2.042   -1.120    0.659   -2.015    2.534    1.502    0.180    0.301   -0.505   -0.163    0.576   -1.352    0.461   -1.993   -2.433   -0.761   -1.669   -1.662   -4.272   -2.547   -5.264   -7.004   -5.652   -9.813  -10.059  -12.036   -9.787   -9.490   -7.504   -6.458   -6.730   -4.875   -1.272   -5.433   -3.316   -3.443   -3.708   -6.116   -3.491   -3.994   -6.239   -6.566   -1.509   -3.180   -1.042   -0.399    1.480    2.849    3.806    8.352    6.215    9.053    8.493    9.507    7.980    4.707    3.023   -2.416  -10.125  -11.527  -16.034  -15.329  -13.888  -12.639   -8.084   -5.492   -4.886   -2.090    1.075   -3.800   -1.167   -3.731   -3.315    1.272   -1.568   -1.862    2.544   -2.444   -0.174   -1.190    0.840    0.167   -1.045    0.015   -0.765   -2.091   -0.221   -0.930   -0.322   -1.646    1.710    0.464   -1.037    1.573    1.671    0.800    0.589   -0.443    1.656   -0.093   -2.335   -2.157   -2.219    0.802    0.162   -0.912   -0.620   -1.688   -1.138    0.033   -1.416   -2.592    0.093   -0.275   -0.276   -0.435    0.643    0.875   -2.671    2.946    0.261    0.614    1.134   -1.859   -1.951   -3.534   -0.909   -1.312   -0.710   -0.757   -0.897    0.762   -2.337   -0.702   -0.693   -2.283    0.396   -0.666    0.534    1.532    0.578   -1.444    0.758   -0.858    1.483   -1.944   -1.716   -0.319   -1.407   -1.176   -0.125   -1.000   -2.718   -3.624   -1.847    1.359   -1.781    1.960    0.748   -1.170   -1.163   -0.376   -0.308    0.597   -1.569   -1.692   -1.937   -0.642    0.386   -2.407   -2.887    0.134    0.487   -1.406 
DATE 2017:045:05:22:55 obsn  40 az 202 el 27 freq_MHz  1420.3060 Tsys 138.000 Tant 40.447 vlsr   27.82 glat -4.930 glon 239.466 source VYCma 
Fstart 1419.303 fstop 1421.309 spacing 0.009375 bw    2.400 fbw    2.000 MHz nfreq 256 nsam 5242880 npoint 214 integ    23 sigma    0.595 bsw 5
Spectrum     21 integration periods
   0.924    1.414    1.159    0.534    1.295    0.954    1.567   -0.030    1.123    0.692   -0.013    1.338   -0.519    0.684    0.025    0.711   -0.141    0.219    0.753    1.227    0.697    0.331   -0.047    0.691    1.503    1.485    0.031    1.462    1.337    0.221    1.234    1.725    1.179    1.048   -0.372    0.656    0.998    1.511    0.769    1.209    0.373    0.942    1.475   -0.001    0.814    1.032    0.595   -0.136    0.716    0.357    0.412   -1.183   -0.335   -1.183   -0.761   -1.487   -1.538   -1.292   -2.528   -2.015   -4.019   -4.550   -5.345   -6.579   -8.732  -10.280   -8.447   -7.491   -6.062   -4.878   -4.203   -3.245   -2.113   -5.122   -3.170   -3.496   -3.628   -4.433   -3.610   -3.344   -1.642   -4.959   -2.210   -2.333   -1.625    0.073    1.085    1.637    3.746    4.918    5.208    8.064    8.209    7.087    6.093    5.447    2.838   -1.477   -6.397  -10.940  -13.682  -13.697  -12.286  -10.914   -8.097   -4.709   -3.973   -3.852   -0.501   -1.737   -1.581   -1.536   -1.708   -0.631   -0.479   -1.493    0.743   -0.405    0.183    0.088    0.518   -0.006    0.194    0.247    0.472   -0.055    0.045   -0.280   -0.470    0.486    0.974   -0.162   -0.216    0.208    0.395    0.022   -0.653    1.213    0.041    0.168   -0.511   -1.359   -1.181    0.619   -0.272   -0.378   -0.623   -0.812    0.410    0.258   -0.688   -0.477   -0.669   -1.025    0.643   -0.858    0.482    0.542   -1.128    1.205   -0.435   -0.964   -0.751   -0.071   -0.479    0.507   -0.691   -0.916   -0.232   -0.440    0.086   -0.466   -0.049    0.709   -0.433   -1.074    0.067   -0.048    0.502   -1.304   -0.658    0.023    0.046   -1.236    0.218   -1.212   -0.205   -0.159    0.320   -1.291   -0.986   -0.839   -0.622   -1.176   -0.811    0.529   -0.766   -0.732   -0.058   -0.618   -1.608   -1.872   -1.071   -0.726   -1.229   -1.163   -2.307   -0.655   -0.428   -1.142   -1.094   -0.073   -0.626   -1.153 
